#Y dist(nm)	Y force(pN)
3571.475633	20.580400
3591.762050	19.340100
3598.310600	19.000200
3593.808700	19.341900
3597.415317	19.165700
3599.882100	19.050300
3599.137850	19.123800
3594.824917	19.409600
3590.416517	19.702700
3603.077767	19.162100
3599.400867	19.397000
3598.643283	19.472800
3597.689300	19.527600
3601.701200	19.452000
3604.084350	19.384500
3601.903933	19.622800
3611.656250	19.018200
3609.824283	19.129300
3605.461950	19.402200
3616.829733	18.839800
3612.884750	19.124100
3615.692500	19.020000
3617.367033	18.964900
3617.019367	18.980600
3612.742600	19.266900
3614.756283	19.239700
3616.717917	19.237700
3616.200017	19.295300
3620.075083	19.097800
3614.600250	19.434000
3622.323367	18.997700
3619.465517	19.204700
3624.730167	18.959300
3623.495617	19.040000
3621.917300	19.140600
3623.045783	19.105300
3618.454783	19.457200
3622.830017	19.206200
3624.168417	19.228700
3622.690150	19.372800
3622.370917	19.443500
3625.468733	19.267000
3632.125200	19.007700
3638.408017	18.697700
3630.136433	19.321600
3631.978083	19.197400
3625.843717	19.588400
3621.048283	19.887400
3632.499367	19.316300
3634.760417	19.208000
3634.148833	19.290100
3632.584733	19.409800
3639.806800	19.057800
3636.663883	19.300000
3639.166200	19.182000
3636.995167	19.356500
3637.420017	19.385300
3638.976167	19.326800
3640.399167	19.311800
3638.366367	19.574600
3647.913717	19.029500
3640.565267	19.550600
3644.774500	19.309500
3656.576217	18.605900
3642.835850	19.477200
3659.699017	18.615200
3655.131000	18.906900
3649.047450	19.303200
3649.914983	19.260700
3644.151867	19.762100
3650.852633	19.421200
3651.351517	19.478900
3653.927733	19.331500
3661.180950	18.914700
3656.030083	19.226500
3653.320250	19.578600
3654.825533	19.505500
3656.438217	19.417700
3654.288483	19.562800
3660.425033	19.325800
3664.977617	19.144400
3663.627767	19.246400
3658.371633	19.615900
3661.396550	19.437000
3663.242967	19.379300
3659.263217	19.643300
3661.153017	19.555400
3666.644950	19.272300
3657.374450	19.929300
3662.142150	19.669800
3660.386067	19.793000
3661.580017	19.764800
3668.511283	19.534900
3670.384550	19.437600
3677.778467	18.999200
3669.436667	19.520900
3675.986783	19.278400
3673.255317	19.462400
3672.929433	19.558900
3671.866300	19.637100
3671.879900	19.657200
3674.742583	19.503400
3688.056100	18.755100
3668.982783	19.945000
3678.801400	19.384500
3673.404867	19.711100
3661.524533	20.569900
3673.734750	19.853400
3678.133783	19.654000
3676.661083	19.774600
3684.313400	19.395000
3679.344867	19.718900
3679.399783	19.735600
3679.946183	19.695700
3680.546550	19.726200
3687.373567	19.477400
3684.490583	19.685500
3690.128950	19.354800
3690.566717	19.371800
3678.677300	20.250900
3688.661350	19.689600
3695.069117	19.378700
3690.942517	19.619900
3676.641150	20.499600
3693.019900	19.561200
3692.895217	19.704800
3695.284767	19.612700
3697.429350	19.557600
3696.172083	19.619800
3703.909300	19.167900
3699.644200	19.419900
3689.208083	20.223700
3699.391067	19.640000
3697.304933	19.765600
3697.330067	19.783700
3695.774850	19.983900
3699.899883	19.842100
3705.498867	19.532000
3702.875067	19.728800
3709.484900	19.356900
3703.467417	19.749200
3714.859633	19.123900
3707.277150	19.718400
3704.561950	19.912800
3699.894800	20.226900
3697.818817	20.358200
3705.301717	20.063300
3713.256100	19.638900
3709.404150	19.912200
3708.284867	19.987700
3701.749383	20.395000
3705.788317	20.195300
3718.122250	19.628700
3717.193583	19.719400
3714.616600	19.954500
3710.771667	20.193500
3709.163500	20.300100
3718.532250	19.762800
3716.665233	19.762900
3715.896633	19.820800
3714.973933	19.904500
3720.565950	19.543800
3714.481417	19.930700
3712.667700	20.054700
3710.456233	20.197000
3711.037850	20.166900
3718.231333	19.727500
3715.105350	19.821300
3707.799617	20.238200
3710.014650	20.076900
3702.310283	20.515300
3702.814867	20.475500
3707.972200	20.170500
3701.942800	20.524800
3705.624867	20.299100
3702.596167	20.476100
3707.254017	20.210600
3708.116083	20.156800
3702.577400	20.486700
3710.847250	19.986300
3709.058017	20.087300
3697.367267	20.408600
3707.406417	19.767800
3704.809683	19.928800
3704.133417	19.966400
3715.090117	19.160000
3696.954150	20.218500
3694.301533	20.417800
3700.060783	20.093200
3706.666733	19.623700
3703.167800	19.768800
3709.966717	19.347800
3711.561967	19.263500
3706.678700	19.543500
3706.464300	19.547100
3704.592617	19.640600
3698.598183	19.932100
3700.351350	19.825800
3706.357500	19.467000
3699.279633	19.900000
3699.852733	19.859200
3708.291400	19.354500
3698.578200	19.958100
3701.520350	19.750800
3690.120383	20.189200
3694.937017	19.875800
3698.434067	19.650500
3694.544483	19.909000
3698.565500	19.681200
3700.822850	19.523700
3696.815783	19.760200
3700.036317	19.577000
3691.919700	19.720200
3692.481300	19.695300
3695.806633	19.482100
3692.512750	19.698600
3679.414750	20.460600
3687.636133	19.933900
3692.492183	19.643500
3690.922167	19.733000
3693.426817	19.610900
3694.351317	19.537100
3686.629550	19.992900
3688.352450	19.892100
3690.569433	19.756900
3687.774200	19.916400
3687.033017	19.955000
3696.180433	19.411900
3693.008800	19.592100
3696.410750	19.383900
3689.561350	19.760700
3693.038833	19.076500
3688.894667	19.305200
3689.741283	19.212100
3685.164067	19.471400
3678.918733	19.731700
3684.105883	19.407400
3684.303067	19.389800
3680.084917	19.632200
3681.313383	19.572700
3687.264700	19.233900
3682.729383	19.336000
3676.146783	19.671700
3682.055550	19.305000
3685.040933	19.130500
3682.220183	19.269100
3685.450633	19.074400
3684.197533	19.153000
3681.657183	19.324900
3681.836117	19.265300
3676.257567	19.492700
3671.458683	19.763800
3666.530350	20.031600
3673.541517	19.606400
3674.757900	19.493700
3677.890333	19.321600
3677.908150	19.295700
3677.420183	19.313500
3679.685383	19.158700
3674.690333	19.457200
3675.762750	19.394100
3680.579850	19.085100
3670.630317	19.681400
3669.992583	19.719400
3667.354233	19.534300
3675.133017	18.992000
3667.688617	19.412000
3668.760600	19.353000
3670.087933	19.252300
3667.946733	19.360000
3665.432633	19.424500
3664.696317	19.460900
3654.842483	20.075500
3666.246567	19.376600
3670.684767	19.113500
3666.340817	19.383500
3665.856717	19.406900
3670.966733	19.086700
3664.971050	19.325100
3658.995150	19.480800
3665.703783	19.074400
3653.379867	19.793000
3653.700717	19.782200
3656.084900	19.503600
3651.361967	19.775900
3651.405917	19.733300
3650.285550	19.784400
3661.325167	19.143200
3647.283433	19.980700
3655.195617	19.326800
3653.416633	19.425700
3648.828717	19.711400
3657.940733	19.168300
3649.034133	19.570900
3643.354250	19.881300
3646.153550	19.724700
3639.917883	20.117500
3656.674533	19.114000
3655.905183	19.149700
3650.627167	19.298300
3649.772833	19.302400
3638.099683	19.978900
3641.208367	19.793000
3648.956883	19.323100
3652.265633	19.124500
3647.288617	19.216700
3647.417700	19.200600
3645.123600	19.353000
3647.752183	19.197700
3647.854483	19.159000
3645.470200	19.181700
3640.363367	19.471700
3645.454917	19.186700
3642.218933	19.391500
3642.651267	19.389800
3644.629183	19.288300
3645.346733	19.140100
3642.624133	19.291000
3643.660717	19.226600
3644.023683	19.186000
3638.581650	19.354800
3640.655967	19.193600
3646.237567	18.839000
3638.574117	19.288100
3642.952583	19.049500
3644.441300	18.961200
3654.858517	18.332000
3641.541883	19.142500
3643.993583	18.985900
3641.727200	19.115100
3633.796883	19.554700
3632.225583	19.525300
3643.375983	18.841000
3640.840833	18.964900
3636.391917	19.223900
3626.488383	19.790800
3634.244467	19.317200
3632.290867	19.429400
3630.697933	19.459600
3631.626400	19.120500
3640.193833	18.562300
3640.859267	18.467600
3632.257933	18.960400
3625.176050	19.369800
3627.722250	19.225800
3630.020000	19.078200
3632.612183	18.917200
3625.868517	19.032800
3617.142667	19.499900
3612.575417	19.762100
3625.928983	18.949900
3624.882900	19.025400
3623.249733	19.115800
3625.758500	18.968400
3628.059900	18.826200
3620.695933	19.269100
3622.945950	19.132800
3624.349250	18.890400
3617.121200	19.193400
3621.065650	18.926400
3620.109767	18.916100
3621.425517	18.846500
3625.828533	18.584500
3618.355100	19.018800
3616.971967	19.084700
3623.670933	18.641200
3624.354067	18.470600
3627.198350	18.285300
3625.035617	18.383000
3627.615700	18.206100
3617.267983	18.783400
3617.062533	18.790300
3623.895083	18.378700
3613.693533	18.993400
3609.625983	18.975400
3617.302200	18.429900
3613.001533	18.675700
3613.426783	18.646300
3609.324967	18.896000
3606.485800	19.070400
3616.290917	18.262100
3608.931367	18.699200
3605.733983	18.883600
3606.054483	18.852100
3607.050483	18.720100
3607.201350	18.674700
3620.059867	17.890400
3613.853033	18.237400
3614.045317	18.212300
3602.070167	18.913100
3611.317433	18.354100
3603.078933	18.854800
3598.334117	19.033100
3602.831600	18.529200
3599.696667	18.713900
3603.907950	18.465300
3600.399067	18.682400
3607.606167	18.220100
3601.604683	18.588100
3601.345767	18.598400
3606.394100	18.303300
3602.060750	18.241800
3588.729000	19.034100
3586.530667	19.189100
3593.617050	18.769500
3600.058833	18.376300
3594.330850	18.723600
3583.558367	19.174700
3589.636100	18.812100
3591.850350	18.677400
3595.622000	18.443400
3589.861767	18.678200
3587.287667	18.781100
3592.927500	18.450900
3583.238117	19.022900
3587.781283	18.773800
3590.310833	18.629200
3585.222300	18.955800
3580.916967	19.228700
3578.255017	19.288400
3578.613883	19.169200
3588.794133	18.546100
3583.521033	18.854800
3591.235867	18.407300
3586.166950	18.706200
3590.353567	18.435500
3587.342050	18.596100
3585.883583	18.596800
3583.916333	18.402400
3584.621783	18.341200
3584.702200	18.319800
3586.397067	18.219200
3582.853817	18.435200
3576.532217	18.828500
3577.451900	18.594300
3576.583633	18.643000
3579.007817	18.493400
3580.536583	18.383500
3576.174883	18.520300
3579.557517	18.281900
3580.725467	18.215600
3584.931133	17.957200
3579.170700	18.290400
3578.730667	18.317300
3580.250900	18.094200
3573.275167	18.545300
3575.176667	18.414500
3576.375567	18.336200
3578.340950	18.157200
3570.743083	18.499300
3573.436617	18.329600
3581.272883	17.848600
3574.897283	18.235900
3576.497467	18.154400
3576.771117	18.110000
3568.822633	18.421900
3574.902567	18.041000
3570.832467	18.262100
3569.047383	18.370000
3570.751050	18.253500
3577.523250	17.840100
3579.323167	17.722400
3579.544167	17.693900
3566.343633	18.336100
3572.074917	17.960900
3565.033450	18.358800
3565.131683	18.341200
3572.679650	17.832000
3572.338400	17.866500
3556.858017	18.780800
3566.024233	18.229300
3570.855917	17.620100
3554.876467	18.530900
3563.826317	17.965400
3562.031367	18.085700
3554.162833	18.481300
3556.247850	18.256500
3553.263333	18.438400
3556.048283	18.275800
3551.035450	18.563100
3552.916900	18.463500
3557.190283	18.172000
3552.473500	18.281700
3556.040583	18.046300
3560.178150	17.788800
3563.472150	17.538300
3554.303750	18.116400
3553.526833	18.172900
3556.956083	17.962600
3557.088467	17.926400
3553.800417	17.884400
3543.242883	18.484000
3554.504900	17.800500
3546.742350	18.235500
3548.158083	18.151900
3550.118550	18.026100
3551.125667	17.964200
3544.416367	18.365300
3548.668100	17.790000
3543.963583	18.052900
3543.604350	18.043800
3541.981700	18.147900
3541.538450	18.084600
3536.837883	18.286600
3545.072350	17.811000
3544.214383	17.877400
3548.148100	17.658900
3546.340733	17.749900
3541.015483	18.039400
3540.565433	18.020200
3539.264083	18.078100
3542.732000	17.878500
3537.787667	18.181400
3534.178250	18.398400
3530.663983	18.632200
3538.198783	18.184000
3540.140617	18.056900
3531.873267	18.250400
3524.532783	18.639700
3529.911267	18.295400
3538.922467	17.763800
3522.851983	18.704200
3528.940950	18.351900
3535.744717	17.936900
3530.985467	18.223100
3527.372483	18.389500
3534.830850	17.967000
3526.988467	18.283100
3527.471550	18.113400
3538.187017	17.330300
3531.309700	17.698200
3525.827433	18.031300
3528.669650	17.853000
3527.166017	17.933900
3526.837433	17.954800
3525.508750	17.964900
3526.702000	17.719500
3531.916750	17.392200
3525.663033	17.755300
3523.072583	17.903200
3517.683967	18.219500
3525.229567	17.765900
3530.112500	17.473500
3523.375000	17.863500
3519.160883	17.828800
3517.332083	17.935000
3516.326083	18.002500
3515.074617	18.107900
3509.655633	18.296200
3508.542667	18.312800
3517.506483	17.780800
3517.257517	17.790800
3517.564167	17.760500
3510.692800	18.168300
3514.882083	17.776300
3514.446617	17.715200
3507.949833	18.126400
3515.350700	17.682000
3507.083833	18.172900
3508.934450	18.071400
3511.259617	17.903000
3511.708517	17.888900
3510.204367	17.825900
3505.256867	17.927600
3508.606167	17.741900
3512.804600	17.471100
3501.544900	18.146700
3508.140067	17.759300
3506.019483	17.906800
3504.747000	17.964900
3508.984283	17.676700
3504.408667	17.652800
3503.723117	17.675300
3507.895233	17.411800
3506.072700	17.500800
3500.555900	17.700900
3499.011550	17.761800
3498.367017	17.802800
3502.347933	17.560000
3496.764033	17.901400
3496.577667	17.896100
3498.359733	17.731000
3494.641917	17.936900
3504.822167	17.311400
3506.100817	17.229500
3500.873150	17.527800
3498.841450	17.657400
3495.764367	17.850200
3502.607433	17.430700
3481.947583	18.356500
3491.299267	17.798000
3492.820700	17.697000
3497.817800	17.387100
3498.413517	17.292200
3492.807217	17.519300
3495.304233	17.368900
3496.730433	17.269000
3493.538900	17.457300
3485.986150	17.927100
3494.632767	17.403800
3499.560150	17.100000
3491.765483	17.550700
3493.144267	17.436500
3493.915650	17.360700
3494.707117	17.209400
3483.017533	17.872600
3484.164600	17.804700
3484.700217	17.750300
3480.649700	17.985300
3485.313050	17.709300
3480.529533	17.870500
3479.729167	17.891000
3484.989400	17.566500
3483.093750	17.655600
3479.317233	17.713600
3482.234700	17.475900
3487.470150	17.160600
3488.497683	17.065600
3485.138517	17.239700
3481.110283	17.464300
3481.778133	17.300200
3476.009500	17.542800
3480.346350	17.282700
3480.243300	17.289000
3473.657633	17.665900
3473.269083	17.666200
3469.063150	17.889300
3463.569050	18.219600
3467.441433	17.984500
3477.565433	17.207800
3473.523450	17.434800
3473.206133	17.435200
3461.077133	18.153100
3465.844650	17.768400
3465.732967	17.736800
3466.287550	17.699100
3465.915800	17.690400
3475.966200	17.067600
3469.018117	17.476400
3460.738717	17.926400
3469.325783	17.430700
3468.052583	17.509600
3469.459233	17.411800
3453.698233	17.989300
3459.922600	17.572800
3461.526317	17.473400
3471.069550	16.884000
3463.704050	17.288400
3463.525033	17.147200
3450.826867	17.894300
3462.407617	17.190200
3462.564283	17.162200
3459.650067	17.318000
3459.492117	17.340500
3460.127550	17.317500
3462.374617	17.167100
3454.142183	17.492800
3451.995717	17.616200
3452.183650	17.583900
3454.527300	17.428500
3454.167017	17.297000
3448.694650	17.574600
3447.553300	17.614200
3451.479667	17.387900
3455.187883	17.159200
3461.235067	16.790600
3464.417600	16.594200
3463.805167	16.598900
3465.474783	16.472800
3461.495200	16.708200
3454.080383	16.871800
3446.945867	17.201300
3438.847883	17.664100
3449.230033	17.044600
3442.454417	17.474600
3442.338000	17.457000
3441.043833	17.539000
3443.387300	17.407800
3445.948417	17.189900
3438.564650	17.458800
3439.355117	17.410100
3447.622617	16.904900
3442.990967	17.153000
3443.728817	16.912700
3438.169167	17.255000
3441.726900	17.043300
3440.677617	17.099900
3433.871000	17.377800
3432.313750	17.441100
3437.621133	17.111500
3430.236367	17.587700
3432.079350	17.475300
3424.263267	17.946200
3434.422083	17.359900
3428.140983	17.750800
3435.311500	17.319600
3435.529483	17.311900
3434.919533	17.066200
3434.652783	17.002600
3440.811383	16.620700
3439.630467	16.689800
3436.697250	16.877400
3443.993483	16.412800
3439.983567	16.645700
3434.408767	16.960100
3432.750683	16.988800
3436.477417	16.659200
3429.596233	17.045200
3428.598517	17.064800
3424.494267	17.298500
3421.027267	17.486600
3427.491300	17.093700
3431.128583	16.831900
3422.532133	17.319700
3419.041767	17.355200
3419.990667	17.275100
3421.458683	17.135500
3421.617917	17.113100
3420.898850	17.146200
3420.749583	17.163400
3420.923367	17.152100
3419.754383	17.218300
3417.806967	17.167400
3413.322617	17.373500
3420.852100	16.911900
3424.340300	16.693500
3424.612117	16.676600
3427.431483	16.492600
3420.572667	16.872200
3411.974683	17.401300
3412.888500	17.213100
3414.446567	17.123900
3416.795900	16.942200
3423.484917	16.472600
3422.544100	16.499100
3415.711583	16.850500
3420.591283	16.532500
3413.499717	16.952900
3421.984950	16.442100
3411.728417	17.017400
3413.133450	16.911900
3418.064867	16.434200
3415.432983	16.564900
3412.836717	16.709600
3408.397267	16.950800
3402.765450	17.284200
3409.532550	16.889400
3412.763333	16.685500
3410.271783	16.828900
3404.266967	16.927400
3400.657917	17.069000
3399.923317	17.110100
3406.458217	16.706600
3417.609583	16.012000
3404.868617	16.787600
3404.542317	16.811000
3404.750833	16.790200
3388.689283	17.514100
3402.171683	16.589200
3392.755700	17.116800
3393.139767	17.048900
3395.859517	16.883300
3401.937717	16.501700
3397.335183	16.762000
3395.191633	16.876000
3398.434167	16.678100
3388.897067	17.261300
3388.003333	17.290000
3384.522450	17.332800
3391.500217	16.921100
3391.125067	16.925300
3384.548867	17.325500
3393.314100	16.801800
3390.185450	16.986000
3398.207550	16.512900
3387.251350	17.170200
3390.467467	16.992200
3399.769217	16.403600
3390.172167	16.658300
3385.983683	16.834000
3382.317283	17.055700
3383.767017	16.967300
3381.504833	17.118700
3386.368367	16.819700
3382.568817	17.053100
3384.410417	16.937900
3377.702167	17.255000
3385.269183	16.672600
3376.591650	17.119500
3374.945733	17.176900
3385.622267	16.526000
3381.763283	16.733200
3378.948133	16.889800
3371.984483	17.299600
3377.699450	16.871100
3383.188000	16.408800
3382.349450	16.422000
3379.799917	16.582400
3385.959250	16.203600
3380.813900	16.511100
3377.830050	16.672800
3370.991750	17.091600
3379.566650	16.583700
3371.278317	16.754000
3368.551300	16.880700
3365.838100	17.028600
3372.595300	16.643100
3368.744767	16.880900
3369.749467	16.812500
3371.448417	16.706300
3363.905650	17.160600
3356.773367	17.297000
3363.012417	16.900100
3354.039033	17.440600
3355.373967	17.371100
3352.715383	17.425900
3355.094417	17.253800
3367.953883	16.468300
3358.388033	17.048500
3362.260167	16.829000
3363.845067	16.727600
3365.034400	16.606800
3359.490133	16.763200
3361.600433	16.620400
3361.721867	16.619600
3362.737567	16.547000
3379.818183	15.511300
3367.018133	16.276000
3363.098700	16.500900
3365.000167	16.350500
3358.696133	16.616500
3353.766350	16.875900
3362.856833	16.316500
3361.097333	16.405300
3360.491433	16.438600
3363.729633	16.217800
3365.708067	16.048700
3356.745233	16.565800
3350.914367	16.646600
3355.597300	16.323900
3347.242117	16.807700
3354.620100	16.338900
3349.569950	16.545900
3346.866217	16.615700
3357.036367	15.985700
3350.916083	16.347700
3358.225850	15.912300
3339.953017	17.009000
3340.837183	16.931800
3333.721417	17.195600
3345.144583	16.486300
3348.247717	16.285400
3341.061283	16.699900
3345.371267	16.406300
3346.567450	16.341000
3342.666083	16.570900
3348.649367	16.176800
3346.716333	15.991000
3338.500767	16.481600
3341.507183	16.297000
3345.999517	16.031000
3335.842650	16.595700
3335.358150	16.615800
3334.724667	16.655600
3339.659717	16.345700
3338.594600	16.396500
3333.415083	16.708300
3336.582383	16.337500
3337.942417	16.209500
3337.159467	16.234400
3336.156783	16.305400
3328.156000	16.756800
3335.256367	16.322000
3327.417167	16.803200
3331.043750	16.590900
3328.706867	16.585400
3332.907117	16.135400
3325.567967	16.550600
3322.693617	16.720700
3326.588833	16.470700
3320.492133	16.825600
3325.104967	16.557800
3328.428317	16.371800
3328.644750	16.339500
3320.460817	16.697300
3322.694067	16.547000
3318.651050	16.778100
3325.257217	16.368200
3325.952750	16.116900
3325.365500	16.129500
3322.861117	16.256000
3327.164567	15.987800
3318.542367	16.483400
3320.379167	16.382300
3317.370350	16.432800
3321.536550	16.152300
3309.187533	16.861300
3315.140550	16.497300
3312.960533	16.647400
3315.481733	16.497100
3321.849600	16.089000
3310.390917	16.759400
3309.386700	16.756800
3317.117900	16.206600
3316.581450	16.210500
3315.059800	16.281900
3319.451367	16.012400
3317.552733	16.120000
3313.013150	16.404000
3315.723383	16.245100
3320.978367	15.909200
3313.588350	16.140600
3314.948133	15.987100
3310.276433	16.219600
3309.957967	16.231400
3304.418450	16.514400
3310.111467	16.166300
3307.030083	16.337200
3309.732017	16.197800
3313.088450	15.629100
3304.847750	16.079400
3308.006483	15.870400
3299.559633	16.383700
3305.480333	16.012000
3302.286750	16.195500
3302.637083	16.041700
3302.437133	16.014100
3301.364067	15.976100
3293.605217	16.402700
3299.341467	16.017200
3298.978367	16.042100
3290.076350	16.547400
3290.516167	16.512500
3296.596417	16.175600
3304.589800	15.705000
3298.065600	16.076700
3300.869317	15.894800
3296.537933	15.966400
3292.815033	15.967600
3280.839000	16.664700
3292.329517	15.950600
3287.802633	16.194700
3290.553183	15.859900
3293.143983	15.676900
3290.913667	15.793400
3287.489733	15.999700
3277.780233	16.397200
3286.674800	15.848700
3285.631733	15.903100
3283.267150	16.055700
3280.235933	16.060900
3277.323250	16.217100
3290.596267	15.421100
3280.122367	16.029800
3279.245733	15.986500
3281.816600	15.780300
3279.399617	15.925100
3281.536000	15.787800
3275.381683	16.153600
3273.683867	16.261100
3268.773500	16.547400
3277.966517	16.019600
3278.969333	15.959200
3272.541933	16.336600
3272.123883	16.200400
3265.900000	16.371900
3269.308750	16.157100
3269.564650	16.128300
3269.358200	16.094400
3265.007067	16.210100
3264.977850	16.219800
3264.239050	16.278900
3269.804400	15.955200
3264.604817	16.122800
3268.507167	15.884900
3267.175267	15.957200
3262.223033	16.231900
3263.231483	16.168600
3260.812117	16.331300
3277.017000	15.350100
3269.134100	15.813300
3272.139483	15.604600
3271.237550	15.656700
3269.326583	15.513700
3269.580983	15.349900
3262.306817	15.762500
3271.802717	15.200600
3265.554433	15.581500
3270.317800	15.282900
3261.555783	15.813700
3265.861317	15.570200
3266.560667	15.356300
3256.950850	15.738900
3256.783567	15.728300
3255.685167	15.779000
3257.899950	15.612900
3253.713267	15.717800
3256.105717	15.560600
3255.145417	15.607100
3255.856650	15.566100
3251.662050	15.735300
3248.808333	15.879400
3244.065267	16.167800
3252.277900	15.648300
3257.951833	15.288700
3248.096183	15.866200
3251.369183	15.697900
3251.333717	15.704900
3240.914567	16.310900
3253.463700	15.584700
3245.473267	15.779900
3244.807100	15.714300
3245.196917	15.695300
3244.087883	15.745600
3246.556667	15.601100
3239.781433	16.021900
3243.423667	15.809000
3244.740800	15.710400
3238.233233	15.900100
3246.475283	15.259600
3245.702900	15.272400
3236.632717	15.802400
3243.908083	15.352000
3240.626283	15.547300
3242.275133	15.431200
3241.376000	15.481200
3237.583583	15.682600
3238.373000	15.336000
3240.325033	15.157000
3235.648983	15.439000
3230.245450	15.759300
3231.181133	15.700600
3229.081483	15.845200
3234.471600	15.314400
3231.310733	15.551500
3233.021033	15.435700
3234.439117	15.324200
3235.132733	15.163300
3228.339817	15.533900
3231.203183	15.331900
3232.220933	15.244000
3235.122200	15.065700
3226.986367	15.551300
3224.391417	15.602000
3222.333383	15.583300
3222.781350	15.551100
3218.520550	15.802200
3224.900117	15.420200
3216.887350	15.901200
3220.198150	15.694800
3213.211050	16.128000
3212.084733	16.198000
3217.939700	15.857700
3219.933050	15.678000
3220.830717	15.309500
3218.426450	15.436200
3216.327817	15.564200
3218.913267	15.398300
3217.613450	15.473100
3210.985567	15.866300
3211.225050	15.633000
3212.200400	15.568200
3215.104367	15.419900
3210.356133	15.697300
3211.806383	15.463900
3208.569950	15.640200
3201.649567	16.031600
3213.822400	15.293400
3208.525450	15.629700
3203.583067	15.935000
3213.076217	15.235700
3214.713800	15.041100
3206.720417	15.508100
3206.367767	15.501500
3207.914500	15.418500
3214.446483	15.016600
3215.597067	14.915000
3220.229450	14.617500
3212.659950	15.039600
3212.167050	15.060900
3210.732100	15.058800
3205.993817	15.039200
3201.102917	15.315800
3197.022583	15.535600
3201.054833	15.300700
3205.174167	15.060500
3195.865450	15.608100
3193.874850	15.502200
3198.268867	15.224300
3201.516517	15.032300
3200.282300	15.122100
3188.181733	15.707800
3194.039067	15.297500
3196.825483	15.117700
3192.866317	15.336500
3192.854650	15.343200
3190.938750	15.436800
3190.047150	15.444300
3189.768517	15.447500
3180.607250	15.964800
3185.882417	15.602900
3186.499783	15.555700
3189.222883	15.385900
3197.343017	14.812400
3194.112200	14.911800
3191.041167	15.083600
3190.238417	15.052100
3186.183200	15.285000
3185.159550	15.315600
3185.568400	15.266700
3185.071783	15.160900
3190.609817	14.815400
3183.824500	15.191100
3192.461067	14.641400
3184.163400	15.009600
3181.608117	15.127700
3181.532067	15.092000
3176.015983	15.392500
3171.709017	15.652700
3178.479967	15.254900
3178.620900	15.129600
3179.993667	14.991500
3182.320683	14.803900
3172.971533	15.341500
3175.910383	15.154000
3183.016967	14.714000
3177.238267	14.969600
3175.229200	14.977500
3169.551817	15.297200
3173.022000	15.097800
3171.661633	15.183700
3175.298200	14.961000
3170.526717	15.199700
3178.215783	14.590600
3168.443817	15.206900
3169.774833	15.067900
3165.530250	15.326400
3169.568067	14.952500
3168.615600	14.966700
3167.495633	15.009100
3163.177083	15.238300
3176.005267	14.443700
3166.090733	15.022600
3171.146617	14.624000
3157.394517	15.353600
3160.857917	15.136100
3148.287383	15.882400
3159.684317	15.214700
3155.668983	15.437800
3156.734750	15.335400
3159.947650	15.051600
3156.605733	15.238000
3159.328433	15.046600
3154.230267	15.265700
3155.223600	15.142200
3152.603317	15.278900
3155.189783	15.090400
3153.939467	15.168800
3151.442967	15.315200
3153.702117	15.170000
3148.313667	15.419300
3154.372433	15.025900
3153.414017	15.058400
3156.834700	14.835900
3166.216533	14.202400
3155.198350	14.876100
3142.406133	15.509800
3140.633000	15.582600
3156.672133	14.595100
3156.278800	14.581500
3160.485067	14.250500
3152.379283	14.697100
3145.018067	15.062600
3145.373683	15.036400
3140.763700	15.303900
3147.178833	14.915800
3140.431333	15.280300
3145.437100	14.899500
3138.636650	15.284700
3133.330033	15.555700
3151.387083	14.461000
3144.103433	14.895400
3142.134550	14.948700
3137.286700	15.106200
3140.999433	14.878000
3138.467950	15.017400
3140.300183	14.895700
3138.159250	14.949300
3139.783000	14.835300
3137.552333	14.913400
3135.406533	15.031900
3139.991767	14.725400
3135.279467	15.024200
3137.634667	14.749700
3134.307983	14.888200
3121.483200	15.597600
3126.827800	15.272400
3128.474533	15.165400
3132.333433	14.944000
3127.413500	15.158100
3131.768550	14.796000
3122.435050	15.314400
3121.139483	15.408100
3127.145317	15.024200
3127.546250	14.967600
3127.047383	14.982700
3129.664867	14.789900
3128.174483	14.851300
3131.358850	14.652300
3124.833533	15.003400
3121.988150	15.031200
3124.828400	14.856900
3115.020817	15.442400
3119.107983	15.180400
3127.868467	14.551400
3128.563850	14.431500
3117.838833	14.976400
3120.216050	14.835600
3112.622467	15.288200
3124.550317	14.559800
3118.402917	14.789900
3123.044500	14.465400
3107.307300	15.331200
3125.093300	14.247900
3120.799617	14.443700
3119.256200	14.567400
3122.302650	14.300400
3111.674083	14.842300
3111.858500	14.775900
3109.978800	14.858400
3102.144600	15.337500
3115.055000	14.571600
3109.401167	14.885000
3113.329383	14.569600
3110.000850	14.775000
3118.627450	14.208600
3113.127067	14.513000
3104.631567	15.017000
3115.444150	14.364000
3109.367300	14.575200
3102.460750	14.940000
3101.488800	15.009000
3112.511000	14.350800
3102.774400	14.942700
3108.630050	14.564400
3105.491783	14.538100
3101.365733	14.740900
3106.223267	14.447000
3096.437433	15.018700
3107.669167	14.262800
3102.532067	14.564000
3090.278500	15.282900
3103.567733	14.476900
3104.722483	14.365000
3107.901283	14.136400
3108.139067	14.063300
3109.180283	13.933000
3106.321950	14.076600
3094.041083	14.799700
3088.591217	15.094100
3096.238350	14.511300
3094.846767	14.574800
3088.829500	14.866500
3085.801083	15.029800
3093.605617	14.539400
3095.720550	14.419200
3096.583067	14.196200
3094.435083	14.292700
3093.523717	14.333600
3084.521050	14.859600
3097.423500	13.959900
3094.928183	14.048800
3092.554083	14.131600
3084.083300	14.626500
3096.389483	13.889800
3090.981350	14.211000
3092.812883	13.908700
3086.188167	14.291900
3081.289083	14.569600
3085.978833	14.279800
3089.819600	14.015400
3084.424100	14.308500
3086.064383	14.172400
3081.407983	14.411500
3078.538083	14.584300
3072.889683	14.927800
3069.851917	15.075500
3073.997317	14.694200
3079.776217	14.323100
3072.437083	14.743600
3078.424883	14.363500
3063.969783	15.231400
3077.725167	14.394800
3079.192717	14.172200
3076.824417	14.294600
3069.672917	14.627300
3068.972167	14.668100
3055.300050	15.485700
3063.515650	15.006900
3063.109950	14.983500
3064.768567	14.845700
3067.668617	14.652500
3070.568233	14.451400
3069.924133	14.463100
3061.672467	14.941700
3060.049650	14.975400
3067.711717	14.454800
3066.898183	14.464000
3064.842783	14.555800
3064.874017	14.511500
3064.902600	14.386800
3065.345000	14.349300
3050.566817	15.213500
3066.436800	14.225700
3059.520450	14.513700
3057.839500	14.612400
3053.703817	14.822000
3056.576517	14.645300
3059.678267	14.372600
3054.965317	14.660300
3057.598617	14.497700
3061.971283	14.233900
3063.456883	13.950700
3061.172567	14.072900
3044.544867	15.106700
3055.952600	14.429700
3053.497683	14.428000
3047.534617	14.714600
3044.492233	14.863300
3049.889717	14.541800
3056.849817	14.118500
3049.755367	14.526200
3050.743000	14.380800
3051.187783	14.277100
3048.548150	14.430600
3053.828183	14.107300
3048.188567	14.392100
3050.953200	14.116200
3050.249467	14.138600
3047.968600	14.232000
3041.813550	14.602500
3044.498933	14.437000
3039.402500	14.736600
3044.041850	14.372100
3044.799850	14.317800
3049.177100	13.953300
3046.892600	14.094600
3049.753933	13.911400
3039.103667	14.555600
3043.216600	14.196300
3036.582317	14.529800
3037.453467	14.425400
3040.323367	14.259200
3037.810100	14.391900
3040.668517	14.225300
3027.368283	14.905300
3027.743933	14.843500
3039.865650	14.123100
3037.492183	14.285800
3033.543600	14.523600
3029.706767	14.715800
3032.638300	14.523900
3034.634500	14.387100
3034.949700	14.321100
3033.895217	14.309000
3036.727833	14.083000
3028.598200	14.499900
3036.188733	14.010400
3034.856567	14.014700
3033.130683	14.075800
3029.163950	14.316600
3030.522833	14.211400
3032.425033	13.907200
3030.007733	14.045800
3018.519883	14.711200
3023.284217	14.422100
3031.321700	13.792500
3029.700350	13.812000
3022.175133	14.194600
3023.616650	14.087100
3022.703067	14.152100
3032.071933	13.564000
3023.646717	13.954400
3024.150650	13.829100
3019.157783	14.060800
3025.368783	13.664200
3016.082433	14.233900
3011.458750	14.518500
3013.093800	14.391300
3010.502733	14.515300
3008.318100	14.637000
3011.433950	14.380800
3015.577667	14.120900
3017.723017	13.987400
3012.943633	14.280100
3017.794650	13.807800
3014.436483	13.995100
3018.184117	13.754000
3010.203117	14.222000
3011.047283	14.043700
3002.946533	14.481700
2997.770783	14.774200
3001.789300	14.501400
3003.936150	14.380200
3009.549083	14.024800
3014.875933	13.654300
3002.061400	14.405700
2995.136517	14.818700
2996.821250	14.716500
3004.899350	14.187900
2999.140150	14.501400
3001.013983	14.346100
3002.496300	14.228700
2999.462733	14.392000
2998.337950	14.448300
2991.950183	14.792200
2997.204583	14.321500
3001.109517	14.066900
2993.079567	14.474300
3002.858100	13.875300
2993.898900	14.398800
2994.095250	14.388600
2998.150117	13.967900
2989.944783	14.447500
2999.785850	13.851600
2995.901700	14.079600
2996.205033	13.923400
2994.944017	13.940900
2993.488033	13.985200
2983.106667	14.585300
2990.041617	14.177000
2999.694533	13.592200
2999.918600	13.426200
2987.815783	14.151700
2997.872633	13.533700
3002.508533	13.253500
2991.913867	13.799000
2984.778433	14.115700
2985.047950	14.087100
2991.123067	13.682000
2992.066400	13.599900
2986.313850	13.945800
2988.305833	13.799500
2980.526167	14.140700
2980.201733	14.147200
2979.169400	14.124600
2981.373383	13.970200
2982.474733	13.901500
2979.546950	14.077500
2972.914800	14.340600
2971.300517	14.415200
2981.921183	13.725700
2979.756467	13.839500
2976.073833	14.044000
2974.882117	14.103500
2976.558250	13.935600
2975.836217	13.948100
2970.101333	14.244400
2972.740933	14.087800
2973.086167	14.036600
2976.477917	13.829000
2958.452567	14.737400
2975.267333	13.685500
2970.292483	13.950700
2971.879267	13.877900
2975.595850	13.558500
2975.361417	13.468700
2972.472100	13.603200
2962.497633	14.155900
2964.617317	14.027000
2967.306250	13.868100
2966.011283	13.895200
2966.886850	13.688400
2965.522650	13.776300
2960.501700	14.081100
2963.911317	13.877300
2960.646183	14.020600
2961.318933	13.978300
2967.821933	13.484500
2971.438967	13.263200
2969.616367	13.334900
2969.921633	13.295500
2959.977200	13.751400
2960.666850	13.632300
2948.341433	14.301100
2955.190617	13.916600
2961.020450	13.536600
2954.041833	13.950700
2951.257200	13.974300
2960.922433	13.387300
2960.140700	13.428300
2953.537317	13.812200
2965.201017	13.013600
2950.277250	13.834800
2947.979383	13.969900
2961.837800	13.100400
2946.987167	13.980200
2947.809550	13.953300
2956.486233	13.406200
2953.298417	13.417100
2952.131450	13.454400
2954.994767	13.273700
2946.736517	13.754900
2944.730783	13.683700
2947.322483	13.503400
2941.898333	13.768900
2940.307100	13.849500
2947.025750	13.405200
2945.424000	13.507500
2945.251417	13.499000
2940.748633	13.762600
2943.890683	13.413100
2941.351833	13.545100
2930.750367	14.168900
2932.047333	14.082700
2935.986417	13.715900
2937.250150	13.578900
2932.200050	13.852800
2933.336967	13.753700
2941.790733	13.289800
2936.125750	13.596000
2940.839800	13.289100
2937.351983	13.459000
2926.408850	14.076600
2931.937217	13.695200
2934.545300	13.536000
2933.220633	13.616200
2928.865900	13.872900
2937.352400	13.185900
2944.084283	12.763900
2938.286650	13.096200
2937.323200	13.132500
2935.395867	13.117700
2942.684383	12.659500
2930.910017	13.277000
2937.361350	12.869400
2931.620867	13.178900
2931.152300	13.206600
2927.715400	13.254000
2924.859933	13.376200
2916.308617	13.858400
2921.816783	13.525300
2918.117517	13.736300
2919.280417	13.664000
2917.203650	13.588800
2916.154017	13.672700
2911.481183	13.971700
2914.278700	13.816200
2912.027350	13.866000
2918.911917	13.403900
2915.089483	13.627600
2914.245317	13.640600
2916.865150	13.472100
2915.539983	13.550200
2919.461450	13.278600
2916.920417	13.276700
2918.875300	13.150200
2910.740750	13.619400
2910.975600	13.588800
2911.734833	13.403200
2913.019750	13.284900
2907.780767	13.587500
2904.238983	13.799200
2900.224850	14.031600
2907.481417	13.607600
2908.226767	13.461200
2909.637567	13.303400
2901.694733	13.726900
2901.768650	13.691400
2910.233150	13.150800
2902.742700	13.611900
2897.962300	13.834500
2904.800100	13.377000
2896.326217	13.851500
2903.610467	13.398500
2896.969700	13.775400
2899.748133	13.596700
2897.878467	13.671200
2899.576650	13.492800
2905.510933	13.122700
2896.129517	13.671800
2889.948483	13.985200
2894.609283	13.622200
2891.153167	13.803800
2903.161800	13.072800
2895.715383	13.472200
2895.804983	13.332700
2895.929867	13.298600
2889.419567	13.628300
2893.563817	13.382600
2893.315883	13.333900
2899.231900	12.952500
2897.850367	12.995300
2893.751133	13.235500
2899.977450	12.767100
2894.324517	13.068200
2880.602667	13.845800
2880.829350	13.836000
2885.502400	13.417200
2882.282650	13.557000
2883.584150	13.426200
2884.422367	13.389500
2888.800100	13.090500
2884.511617	13.330400
2886.237267	13.184900
2881.403483	13.421200
2888.011217	12.965300
2883.856683	13.160200
2880.797233	13.327300
2885.796300	13.008000
2887.155417	12.909800
2880.853933	13.273300
2880.944650	13.241100
2872.944417	13.538600
2867.548117	13.835300
2868.918317	13.712900
2872.155183	13.510900
2877.584933	13.135600
2870.072633	13.590700
2883.752800	12.746400
2874.896817	13.263200
2880.631717	12.821000
2883.117483	12.596800
2874.761233	13.027600
2874.053467	13.058300
2875.537100	12.960900
2871.129467	13.205900
2876.557100	12.733800
2859.853317	13.717400
2877.114667	12.698900
2862.981667	13.562600
2863.652583	13.440700
2861.901650	13.462200
2857.793350	13.690200
2849.957667	14.126300
2859.858050	13.522800
2863.361550	13.316700
2871.059117	12.849200
2864.817283	13.222900
2868.575517	12.983000
2860.352867	13.374800
2856.083800	13.614300
2863.903333	13.155400
2857.293050	13.545900
2851.742317	13.712300
2852.228333	13.681900
2861.303050	13.088400
2865.459400	12.825300
2861.926917	13.032800
2860.413600	13.117800
2861.946300	12.868500
2863.519333	12.782800
2849.526467	13.601900
2856.009183	13.179700
2854.003600	13.147500
2858.026767	12.815900
2854.135983	12.943600
2842.423400	13.676700
2855.451900	12.828300
2854.586483	12.946900
2850.726033	13.128700
2850.002917	13.056200
2845.728167	13.281800
2848.665333	13.049200
2852.141267	12.853400
2844.761583	13.287700
2853.491267	12.766100
2850.149967	12.758000
2844.516583	13.089700
2838.046133	13.475500
2846.134733	12.987400
2843.553417	13.001300
2847.796483	12.703300
2837.783667	13.231400
2840.624250	13.044000
2845.525950	12.752700
2849.823583	12.487000
2846.764733	12.553300
2840.594033	12.879400
2838.996900	12.923700
2837.527450	13.003800
2840.426917	12.831800
2840.582950	12.828900
2834.743400	13.129200
2835.179283	13.038100
2839.070833	12.794800
2839.012983	12.796000
2838.693600	12.786300
2829.997350	13.136400
2834.045233	12.863500
2824.052550	13.457700
2820.948133	13.616500
2840.772317	12.455300
2828.023550	13.218600
2827.889867	13.102400
2831.181433	12.859000
2816.982683	13.648000
2824.052200	13.230000
2830.794783	12.802300
2827.172800	12.984900
2825.017117	12.924800
2819.083117	13.291700
2811.346267	13.765400
2823.813717	13.005200
2818.862833	13.167700
2820.431950	13.049100
2814.538117	13.347500
2816.419617	13.247900
2813.890250	13.405200
2825.514283	12.745300
2819.760583	12.985600
2813.893700	13.262700
2815.202533	13.155700
2815.138367	13.128800
2811.538433	13.339000
2815.221633	13.120300
2811.243133	13.352800
2809.056833	13.486900
2822.598083	12.677200
2815.019800	13.128000
2816.370050	12.971400
2823.738667	12.326000
2817.210433	12.708400
2809.033567	13.087400
2814.048533	12.801700
2810.276633	13.014700
2802.165400	13.494000
2807.173067	13.053800
2803.657233	13.234600
2804.036667	13.174400
2807.259467	12.961100
2807.881417	12.908900
2806.311617	12.992600
2810.109283	12.702400
2810.329333	12.661600
2802.669450	13.111500
2809.658467	12.669500
2810.451083	12.557800
2807.281217	12.707600
2808.142067	12.625700
2802.942817	12.897800
2805.803183	12.727900
2807.067067	12.620600
2809.039683	12.436600
2808.061933	12.335200
2805.845283	12.437500
2800.735167	12.685400
2795.586017	12.963800
2796.871517	12.857900
2797.032400	12.835800
2797.487850	12.648000
2801.585383	12.359200
2789.890700	13.041600
2795.108767	12.755600
2799.735383	12.352000
2794.025750	12.640200
2784.939617	13.153400
2795.310583	12.518800
2786.256400	13.048500
2787.111067	12.977600
2790.981033	12.589600
2790.827700	12.566700
2781.313550	13.143000
2784.257317	12.950900
2793.899317	12.304400
2794.072883	12.205900
2783.021767	12.839600
2784.952667	12.684500
2782.994533	12.803200
2778.494733	13.038100
2773.460317	13.325900
2777.212333	13.108900
2779.386600	12.971100
2781.196250	12.705900
2782.321550	12.622200
2774.081500	13.082100
2781.451900	12.625500
2782.444500	12.419100
2776.138917	12.771800
2782.999750	12.330600
2781.274200	12.411300
2769.019517	13.120700
2778.148017	12.576500
2772.872467	12.820400
2769.667267	12.972500
2777.074500	12.480300
2773.043683	12.727600
2779.680800	12.303000
2770.274817	12.859100
2761.737267	13.237400
2776.832200	12.308700
2768.799150	12.765300
2767.344400	12.824100
2769.475467	12.667400
2770.408467	12.512300
2771.552433	12.403000
2773.713500	12.190800
2772.396000	12.267000
2764.649567	12.727700
2769.617433	12.436600
2776.511083	11.836600
2755.454917	13.054700
2764.652817	12.443600
2763.525150	12.503100
2760.266433	12.691900
2763.674417	12.477200
2758.432483	12.723400
2751.553750	13.129200
2754.936517	12.916400
2759.495183	12.649900
2756.201700	12.745200
2749.547767	13.064000
2751.087417	12.961100
2749.632917	12.998600
2754.277000	12.713700
2761.180083	12.284500
2756.935233	12.499600
2761.609917	12.080000
2754.226233	12.506800
2748.512283	12.845500
2747.782367	12.851900
2743.788333	12.966400
2757.332900	12.135900
2751.029650	12.462000
2757.709983	12.042400
2746.830600	12.663600
2754.479783	12.207700
2748.147817	12.498500
2752.155183	12.228400
2747.204000	12.492600
2746.960800	12.493200
2741.201250	12.815700
2741.823100	12.765300
2743.406883	12.522400
2744.768067	12.383000
2738.977050	12.665700
2739.995917	12.588800
2732.874033	13.006600
2742.491583	12.432700
2737.492083	12.691000
2732.980883	12.903100
2737.532450	12.625500
2739.241050	12.453600
2734.147017	12.750200
2732.419500	12.845700
2738.625450	12.450600
2735.172900	12.528600
2731.331300	12.747600
2743.187800	12.042600
2735.702450	12.473100
2724.774217	13.004000
2728.374667	12.762500
2739.891283	12.050500
2737.813283	12.130000
2727.426817	12.697100
2729.327633	12.583900
2732.745483	12.250600
2729.480950	12.401700
2731.609133	12.163900
2732.730617	12.109400
2735.151250	11.960400
2736.315283	11.877400
2723.212050	12.471600
2725.340583	12.332800
2723.544050	12.461100
2732.923667	11.852000
2725.590950	12.257400
2723.485617	12.311000
2725.160667	12.191600
2732.368717	11.712800
2730.749350	11.789700
2717.752367	12.557600
2723.017733	12.211300
2714.575083	12.583300
2720.335467	12.225500
2712.820183	12.639400
2714.429033	12.517600
2720.806217	12.119000
2721.432867	12.059900
2719.828767	11.987600
2715.904000	12.199500
2708.673983	12.645400
2716.657633	12.151300
2715.017867	12.119900
2700.721300	12.929700
2689.292767	13.580000
2707.999067	12.445100
2712.818500	12.167400
2710.100833	12.324100
2705.635533	12.517600
2713.555350	11.932500
2718.143167	11.635400
2698.498667	12.794000
2703.965317	12.464300
2709.022850	12.147600
2708.982250	12.128100
2707.103300	12.173100
2698.189650	12.699600
2701.443483	12.487300
2704.849467	12.290000
2706.935983	12.084100
2702.841867	12.300800
2708.138467	11.887700
2696.622417	12.567500
2706.670200	11.954100
2710.247800	11.732100
2704.915083	11.889400
2705.759900	11.772300
2708.291200	11.559000
2701.340233	11.944000
2692.921183	12.398200
2695.769483	12.204400
2700.259033	11.889400
2706.150167	11.498000
2700.305967	11.798000
2697.206150	11.940300
2697.237683	11.914900
2692.048383	12.203800
2688.737300	12.351000
2688.596150	12.201900
2692.209000	11.982600
2694.540483	11.838700
2689.229800	12.156000
2689.701583	11.974600
2687.146783	12.103000
2694.828500	11.583900
2683.042300	12.267000
2686.182833	12.061900
2686.706950	12.019800
2689.139250	11.679600
2687.391983	11.791600
2695.191800	11.284500
2693.046433	11.444800
2686.064750	11.812200
2682.663117	11.968100
2685.317833	11.747800
2675.274733	12.333400
2677.139983	12.193600
2678.206067	12.152000
2680.527967	11.918600
2672.454033	12.324700
2670.102083	12.411700
2669.617583	12.398200
2674.389517	12.098000
2671.448550	12.298200
2675.179450	12.003900
2666.116183	12.430900
2659.496933	12.802000
2672.850050	11.969100
2671.912683	11.995000
2675.362167	11.763800
2671.403217	11.998700
2653.504133	13.000000
2662.996133	12.436900
2663.150483	12.405700
2659.306583	12.639400
2668.500183	12.041500
2670.635083	11.886400
2675.189117	11.478500
2672.947783	11.618200
2673.310400	11.527500
2665.903033	12.001900
2665.058067	11.942900
2656.068800	12.388800
2660.543900	12.097500
2653.514983	12.475300
2653.399200	12.468600
2653.717450	12.478200
2660.981400	12.033900
2662.235167	11.796500
2666.962167	11.504600
2667.225133	11.466700
2662.186933	11.745700
2660.696433	11.787100
2657.982867	11.930600
2656.589633	11.899300
2648.602383	12.373300
2647.066017	12.446000
2654.211433	12.032500
2650.169267	12.141200
2654.427383	11.856700
2653.126383	11.864500
2649.219783	12.094000
2650.612067	12.000200
2652.578533	11.868700
2652.726800	11.751300
2652.092050	11.708700
2660.762150	11.160300
2652.840150	11.640600
2653.708250	11.558100
2656.400883	11.345500
2638.947550	12.177900
2644.221450	11.828400
2641.955267	11.978600
2646.591067	11.682200
2638.309633	12.127000
2637.172400	12.091200
2646.673317	11.480300
2638.526117	11.909600
2636.451983	12.025000
2635.323400	12.095400
2636.478167	12.022100
2634.571883	11.929900
2630.912400	12.150300
2633.764017	11.976800
2633.240300	12.005700
2632.548067	11.897900
2632.101200	11.875200
2631.957650	11.810700
2634.810617	11.661800
2645.434383	11.007700
2638.670083	11.383900
2642.380717	10.996700
2636.613983	11.325700
2627.449833	11.850100
2622.464900	12.124800
2623.756367	11.958500
2631.246500	11.445000
2625.757083	11.716300
2622.163117	11.903300
2613.109200	12.450600
2624.802500	11.757600
2626.145733	11.633200
2625.908767	11.579300
2616.814400	12.104400
2623.854667	11.668400
2619.568417	11.905100
2624.900533	11.581600
2622.127217	11.712800
2614.893617	12.013100
2613.148567	12.084200
2611.958517	12.105500
2616.587667	11.822600
2616.031333	11.878300
2615.811700	11.893200
2610.473283	12.062500
2608.581883	12.175900
2608.178100	12.186000
2618.154483	11.571100
2611.141783	11.865400
2613.976983	11.649400
2605.284500	12.108900
2606.695050	12.008100
2616.396850	11.457600
2612.887333	11.617000
2615.511383	11.360500
2615.868967	11.227700
2612.352767	11.398100
2608.644883	11.576500
2608.995433	11.549200
2601.054000	12.015900
2602.341700	11.888700
2603.587567	11.717000
2598.323750	12.039900
2600.500900	11.907600
2598.378917	12.048800
2594.042217	12.261800
2602.084767	11.754800
2588.187533	12.527500
2590.679350	12.375600
2596.826233	12.019600
2594.129550	12.183600
2594.648767	12.011900
2601.829583	11.547700
2586.338567	12.424400
2597.086500	11.757600
2592.424950	12.016200
2599.125250	11.616000
2582.742083	12.407200
2594.075333	11.713300
2592.522083	11.766100
2592.762783	11.760700
2591.773633	11.737300
2591.204733	11.730700
2597.682967	11.275700
2597.916750	11.258700
2590.677000	11.690400
2592.218900	11.582400
2592.559017	11.466800
2585.809500	11.734500
2587.055217	11.623400
2586.386683	11.652700
2580.917483	11.920900
2588.930150	11.277600
2582.929017	11.601800
2594.132650	10.886400
2587.428617	11.279900
2579.667600	11.719200
2586.148150	11.337600
2583.341800	11.365500
2582.443250	11.375700
2582.003567	11.357000
2583.521450	11.259600
2574.601800	11.795700
2578.953083	11.508100
2567.400400	12.135300
2579.439450	11.396400
2578.367700	11.417400
2574.099383	11.605300
2575.661233	11.492500
2572.613367	11.664500
2575.605717	11.317700
2567.091833	11.807500
2571.365267	11.549300
2566.520083	11.836300
2565.310467	11.831000
2568.647717	11.533400
2566.498117	11.638400
2573.070533	11.246200
2572.682167	11.210600
2561.285817	11.741300
2567.348133	11.382100
2573.816267	10.958600
2561.387033	11.687500
2562.237100	11.556900
2566.287383	11.302600
2559.611383	11.687200
2565.190117	11.335700
2561.292183	11.498800
2556.986383	11.741500
2561.329517	11.448200
2564.260167	11.279000
2556.022267	11.654000
2556.639783	11.595700
2545.633567	12.219800
2560.786417	11.330300
2550.937317	11.905100
2559.444800	11.394600
2562.769150	11.133600
2558.764200	11.335500
2566.493800	10.796700
2556.616750	11.382000
2558.298167	11.271800
2555.092700	11.457300
2552.558017	11.557100
2543.982283	11.913400
2549.635583	11.560300
2550.223100	11.504100
2555.586500	11.157900
2554.254933	11.153800
2551.824317	11.247800
2547.723550	11.456400
2549.084117	11.328200
2544.327767	11.590400
2545.485717	11.533100
2545.323283	11.424400
2543.821783	11.458600
2547.560500	11.142000
2550.046167	10.992500
2539.842500	11.536800
2549.043583	10.975000
2542.444433	11.210200
2542.758567	11.164700
2542.783650	11.142000
2544.502050	11.029500
2544.765367	10.901300
2541.485900	11.016000
2533.198167	11.448800
2534.809783	11.356900
2541.994333	10.915000
2535.224633	11.334400
2537.920683	11.122900
2527.093050	11.663100
2525.326067	11.751500
2529.403617	11.517800
2531.233300	11.381400
2534.500033	11.015200
2530.295583	11.251300
2525.295183	11.490100
2527.687700	11.329500
2535.866883	10.824700
2533.441200	10.968000
2528.474550	11.232300
2526.808850	11.308500
2528.787283	11.116600
2523.688383	11.401000
2521.758200	11.520000
2527.805833	11.135200
2531.759883	10.751200
2519.730300	11.406900
2517.897933	11.454100
2520.754617	11.286800
2520.547767	11.282300
2535.991833	10.345600
2529.905600	10.524000
2523.168833	10.909900
2528.529200	10.583400
2527.423383	10.618000
2509.456433	11.576200
2509.822083	11.493400
2517.406183	11.002300
2516.535317	11.034500
2515.416933	11.107900
2515.061733	11.110900
2505.666533	11.645500
2516.055183	10.967200
2517.196917	10.870400
2518.083500	10.776000
2522.580317	10.476500
2518.637733	10.693900
2518.325917	10.688300
2514.247133	10.753600
2506.071217	11.220500
2508.205483	11.058100
2508.124350	11.100000
2511.229517	10.785500
2505.634500	11.045700
2501.833450	11.170800
2503.612100	11.039400
2500.947200	11.179200
2496.706783	11.441500
2495.217533	11.415100
2493.335433	11.489500
2496.955000	11.259600
2498.271283	11.141200
2493.362867	11.436800
2488.833517	11.710100
2492.400633	11.483800
2492.276233	11.403400
2496.257517	11.155100
2493.355267	11.295800
2496.210817	11.130500
2500.022400	10.725300
2499.611200	10.715700
2492.298433	11.078500
2493.152033	11.005900
2485.425483	11.443600
2493.974083	10.922800
2486.134000	11.223300
2490.332683	10.916200
2485.959583	11.078500
2484.175517	11.201000
2488.377117	10.959200
2486.982817	11.043200
2494.468833	10.447000
2489.008733	10.726900
2492.630500	10.471500
2487.920033	10.768300
2487.081800	10.771200
2476.709500	11.348100
2480.287750	11.107200
2480.328033	11.074300
2486.176367	10.708400
2484.169417	10.810400
2483.029717	10.852100
2485.845900	10.552500
2469.956667	11.480300
2474.780733	11.139400
2478.024117	10.932200
2479.679667	10.825700
2482.529917	10.652300
2482.355283	10.513000
2480.817417	10.577000
2481.999133	10.436500
2473.847483	10.907800
2468.549050	11.208600
2471.220717	11.063300
2471.645733	10.916200
2467.958300	11.030400
2462.853900	11.339400
2473.600700	10.705800
2461.228783	11.417800
2463.930233	11.260000
2468.692483	10.966600
2469.525850	10.910700
2472.643800	10.622700
2467.892117	10.707500
2469.992250	10.560900
2473.419333	10.315900
2462.694983	10.936000
2461.408650	10.937700
2460.666783	10.985800
2462.173367	10.880000
2468.258583	10.516600
2458.082983	10.980700
2459.014667	10.896800
2456.925167	11.022500
2455.983350	11.077200
2458.107733	10.873600
2458.683367	10.807700
2447.475367	11.427800
2459.519050	10.708800
2456.719550	10.870800
2452.926667	11.100200
2452.418267	11.042300
2460.509750	10.479000
2467.719650	9.975000
2452.816333	10.817500
2451.093200	10.917600
2453.147483	10.782700
2451.002833	10.865800
2455.993083	10.416100
2454.391100	10.488000
2451.028467	10.659500
2455.942967	10.344800
2454.206867	10.440200
2450.898367	10.646300
2452.397583	10.469200
2456.767367	10.186400
2440.690717	11.140700
2440.924483	11.137900
2444.106333	10.778500
2438.212983	11.090200
2448.711100	10.389300
2448.797933	10.381900
2444.585550	10.614900
2444.469283	10.598500
2440.377583	10.686700
2440.299700	10.644600
2429.403467	11.207600
2431.901100	11.049600
2428.743333	11.237800
2434.429650	10.894200
2440.465067	10.352600
2432.259383	10.839700
2436.595167	10.566500
2430.588567	10.942700
2431.674817	10.832300
2422.268750	11.288700
2428.120033	10.913800
2424.534300	11.100000
2428.200100	10.870800
2429.832600	10.754100
2430.120817	10.725800
2434.257617	10.422800
2421.448317	11.151800
2424.184483	10.936900
2423.119883	10.972900
2428.386817	10.649600
2429.492350	10.549800
2429.420667	10.370600
2414.306833	11.268700
2421.469083	10.830700
2419.114233	10.970800
2417.296083	10.951300
2417.249367	10.914500
2427.856950	10.258200
2420.680217	10.657400
2419.695150	10.697400
2419.417383	10.701400
2418.972433	10.670200
2422.911667	10.386200
2423.009217	10.349600
2416.601533	10.706500
2415.110717	10.769000
2416.277517	10.628600
2415.859633	10.623700
2416.295833	10.530100
2418.680683	10.387300
2414.330150	10.623300
2419.245883	10.269400
2408.775433	10.772800
2410.756167	10.626200
2406.860517	10.790900
2412.863717	10.399400
2398.263917	11.272700
2411.678800	10.456200
2410.024933	10.408600
2411.477133	10.253800
2411.175967	10.190000
2408.539200	10.338000
2401.552817	10.732700
2401.828467	10.706000
2405.349617	10.352600
2402.061317	10.526000
2396.874683	10.832200
2401.283883	10.565500
2404.735100	10.319400
2394.827333	10.871200
2397.319467	10.689800
2392.228067	10.971500
2401.602367	10.434800
2393.767750	10.787100
2397.562617	10.570700
2399.776850	10.398300
2402.766050	10.188300
2393.873950	10.647300
2396.257500	10.501200
2395.016750	10.559700
2403.434633	10.042300
2393.701133	10.450000
2388.482800	10.752600
2383.859933	11.017000
2396.681900	10.232700
2390.141650	10.482000
2381.318250	10.932000
2385.747817	10.607900
2387.071400	10.530300
2386.511050	10.560300
2400.514167	9.702200
2389.827883	10.248700
2388.516550	10.300200
2386.974150	10.353600
2381.442833	10.647400
2379.835333	10.736800
2381.299733	10.637200
2386.234783	10.312900
2383.915583	10.404400
2391.801383	9.871000
2385.215817	10.116200
2383.998250	10.160100
2386.159450	9.999000
2378.298250	10.414200
2379.602083	10.214200
2383.767933	9.954700
2383.304967	9.957500
2378.039317	10.262000
2382.389683	9.881200
2375.209633	10.290400
2373.164650	10.343400
2374.887950	10.219500
2370.427233	10.450000
2370.934700	10.420800
2372.502917	10.189400
2373.613367	10.060100
2378.093617	9.731600
2368.257567	10.321100
2372.555700	10.064100
2373.143867	10.003400
2366.423633	10.281400
2362.480600	10.488300
2363.959517	10.394600
2363.659917	10.405100
2363.096117	10.446200
2363.038300	10.469100
2365.885350	10.217100
2365.182500	10.114800
2365.606117	10.086200
2367.239533	9.981100
2357.239467	10.518800
2359.003133	10.295800
2354.372400	10.571400
2360.476533	10.204000
2358.265950	10.320300
2353.866417	10.436000
2351.133717	10.587800
2345.353950	10.857300
2352.715483	10.431700
2352.293133	10.435300
2358.809150	10.039500
2355.035083	10.111300
2354.561500	10.157400
2350.754267	10.364900
2347.439483	10.559800
2348.173967	10.475600
2344.223567	10.700900
2348.207800	10.399800
2352.128483	10.165000
2347.434867	10.420100
2350.872050	10.200000
2351.360217	10.102400
2344.041233	10.404400
2328.918750	11.202300
2341.214300	10.488300
2354.304317	9.689300
2346.813217	10.118300
2336.043583	10.745500
2340.503850	10.320600
2344.251917	10.066100
2337.161483	10.447900
2342.221033	10.147000
2339.296067	10.292300
2339.517200	10.250700
2342.814433	9.990700
2341.173617	10.073600
2338.042733	10.184800
2335.028417	10.338200
2338.939150	10.086000
2335.570150	10.298100
2328.081550	10.584900
2327.708617	10.597400
2338.777800	9.920400
2336.601083	10.051000
2338.066567	9.814100
2339.495033	9.676900
2346.341183	9.177700
2340.506900	9.510900
2332.317383	9.977800
2334.239917	9.833000
2332.182717	9.786200
2332.679667	9.714800
2331.905783	9.742000
2330.769967	9.775700
2327.744050	9.906000
2325.282417	9.930500
2328.097433	9.745900
2327.178150	9.740400
2325.033767	9.864200
2324.518500	9.885300
2317.030000	10.310700
2323.298350	9.863100
2323.845500	9.814800
2312.791733	10.430200
2319.952017	9.999500
2321.938150	9.862200
2321.055133	9.933700
2320.230100	9.850800
2317.660267	9.940700
2309.763667	10.344800
2317.208117	9.893000
2317.584517	9.875300
2324.411200	9.432600
2315.239967	9.835100
2317.296583	9.679300
2301.608350	10.614900
2312.659417	9.905900
2312.491633	9.849100
2311.695867	9.755900
2305.707367	10.094600
2299.866400	10.398300
2307.269900	9.966000
2299.828433	10.423600
2309.241967	9.835400
2311.617117	9.549200
2294.544100	10.536600
2306.956867	9.754700
2309.773483	9.567400
2309.333167	9.581300
2306.084967	9.760700
2307.993433	9.457000
2301.184400	9.863100
2303.068250	9.740700
2301.669583	9.807100
2299.417600	9.791100
2300.000967	9.734300
2303.820200	9.426900
2301.826333	9.536800
2301.180683	9.556000
2298.222467	9.731600
2297.956867	9.626900
2297.868150	9.568500
2293.121933	9.849100
2294.273000	9.768900
2293.160533	9.812800
2297.550467	9.550100
2298.746567	9.443000
2292.557600	9.763800
2288.819133	9.993700
2293.599267	9.694700
2288.651800	9.961500
2292.264600	9.606600
2286.718783	9.934600
2276.674433	10.482400
2286.332933	9.904600
2281.347967	10.192100
2281.535033	10.171900
2288.873733	9.610900
2294.177817	9.247100
2283.213517	9.835100
2287.024117	9.596600
2281.406217	9.917600
2281.388867	9.908300
2289.961483	9.290500
2285.756400	9.508200
2284.897833	9.523900
2281.772533	9.714700
2290.614933	9.127300
2286.430533	9.301000
2283.746683	9.388300
2273.018633	9.979600
2281.613900	9.455700
2279.910550	9.544200
2277.604483	9.653500
2277.900900	9.495900
2273.129000	9.758400
2274.749350	9.645000
2267.994733	10.031800
2276.127100	9.445200
2271.065817	9.708800
2267.194183	9.879400
2266.347067	9.926600
2266.601800	9.905700
2268.525100	9.777300
2264.643367	9.892700
2259.500800	10.158000
2256.354450	10.308600
2264.602533	9.804700
2262.353850	9.907800
2261.957333	9.918400
2263.337250	9.761700
2260.293850	9.911400
2255.045500	10.158600
2269.062350	9.314100
2258.002567	9.946700
2261.106550	9.751200
2251.725583	10.132300
2259.751167	9.636500
2267.999617	9.105800
2267.055967	9.139100
2263.143883	9.301000
2252.508050	9.805800
2251.544850	9.847500
2252.272000	9.770400
2252.681917	9.731600
2248.957283	9.963700
2249.827250	9.889200
2243.033550	10.183500
2243.341700	10.157100
2247.525133	9.874300
2248.016150	9.821100
2257.961200	9.222000
2258.500400	9.142500
2246.352300	9.681300
2246.809933	9.625900
2245.894300	9.648300
2237.384600	10.148400
2245.782083	9.542800
2246.567100	9.409200
2244.198133	9.481900
2240.221833	9.707800
2251.875150	8.978400
2252.443983	8.950000
2243.971983	9.368500
2243.426833	9.273400
2237.777700	9.598200
2235.465633	9.676900
2238.456700	9.514800
2239.506717	9.465200
2247.995150	8.877600
2240.899117	9.162800
2242.457067	9.066800
2231.595200	9.694200
2235.313700	9.449700
2236.518917	9.255500
2228.781883	9.726700
2231.516100	9.489300
2236.390783	9.190900
2231.814100	9.466200
2227.893867	9.682100
2230.697467	9.372500
2233.902350	9.130500
2228.658417	9.410300
2226.681800	9.501000
2225.919417	9.527000
2219.295700	9.901500
2222.884783	9.568000
2223.147867	9.539000
2222.488500	9.558000
2220.543700	9.678000
2220.546783	9.547900
2214.194133	9.900400
2213.821683	9.880600
2220.651567	9.448700
2216.705550	9.683700
2215.693183	9.751000
2205.014433	10.195300
2213.647533	9.689800
2210.715600	9.873600
2222.796800	9.138000
2214.665667	9.569900
2220.195017	9.113000
2222.656233	8.933800
2215.629050	9.313200
2210.998767	9.574700
2212.625367	9.450500
2219.585450	9.029400
2221.702517	8.740100
2215.231267	9.072800
2204.369300	9.639300
2203.794017	9.667100
2200.555083	9.832600
2204.857667	9.583400
2203.738800	9.497700
2202.642817	9.545900
2206.973200	9.249600
2203.741067	9.386900
2208.467217	9.093800
2202.140333	9.474100
2201.906517	9.499700
2199.031717	9.632900
2193.432250	9.939000
2202.661150	9.225300
2191.748417	9.861500
2191.928517	9.854600
2204.456267	9.075500
2192.231933	9.682300
2187.371683	9.971200
2195.917100	9.447600
2197.217350	9.369600
2194.239050	9.388800
2193.283350	9.428700
2194.627917	9.281300
2195.565067	9.193100
2189.900067	9.541400
2195.955683	9.143800
2192.137467	9.245000
2193.595750	9.130500
2185.482983	9.544900
2186.558917	9.488600
2183.301533	9.679900
2193.545600	9.051900
2182.287933	9.593800
2190.626050	9.076500
2185.937250	9.324600
2185.943917	9.323900
2176.161083	9.880600
2175.232400	9.911400
2187.737000	9.151500
2183.662850	9.364500
2188.070633	9.088600
2185.168433	9.227800
2191.687667	8.784800
2177.347117	9.504200
2173.848150	9.701400
2182.173433	9.149800
2181.402617	9.167900
2185.716717	8.900300
2187.606583	8.764900
2172.282783	9.498700
2175.754667	9.267500
2172.655567	9.420800
2176.951117	9.167900
2179.032250	8.991300
2170.438367	9.461600
2170.491300	9.426600
2175.331767	9.091100
2189.252233	8.244100
2178.799933	8.843500
2168.722867	9.402800
2165.469850	9.549000
2170.075967	9.238400
2167.309183	9.339700
2178.982317	8.616200
2169.956000	9.151800
2166.524817	9.336800
2168.211300	9.051900
2174.975233	8.622400
2168.919800	8.978400
2165.605900	9.174000
2166.398817	8.981300
2164.048717	9.083300
2168.025333	8.784400
2163.894650	9.038100
2160.003133	9.240700
2167.171367	8.815100
2154.530767	9.458600
2151.952067	9.550400
2154.489733	9.343000
2159.684700	9.031500
2166.772667	8.586800
2163.228333	8.776600
2157.028667	9.040400
2162.309033	8.623900
2164.756300	8.427300
2152.203233	9.142600
2155.862183	8.872900
2159.001633	8.672500
2150.051450	9.170700
2151.665633	8.917900
2147.656233	9.135100
2140.739133	9.550900
2149.553167	8.971400
2150.990933	8.749000
2139.790783	9.383500
2138.579983	9.392800
2138.682800	9.404700
2139.753783	9.317200
2146.273117	8.902400
2130.760300	9.651000
2135.901350	9.358200
2137.286400	9.287100
2143.999483	8.860000
2141.461300	8.960700
2141.764950	8.892900
2138.558600	9.039900
2137.204933	9.088900
2142.396800	8.745000
2130.235917	9.484400
2137.277267	8.937200
2143.681833	8.509000
2138.777067	8.766500
2138.315133	8.743600
2138.555267	8.705000
2130.999983	9.120700
2136.281250	8.649000
2135.811217	8.637800
2130.914583	8.892100
2131.707717	8.802200
2132.981667	8.731400
2130.698667	8.828300
2128.753517	8.931200
2121.989533	9.289600
2123.941617	9.171200
2129.237267	8.849900
2134.286817	8.538500
2130.214800	8.640300
2123.681333	8.993200
2122.921233	8.949100
2123.384533	8.926600
2125.174633	8.806900
2121.293133	9.019600
2120.256300	8.985000
2119.713233	8.950000
2108.783567	9.613100
2113.486167	9.309200
2111.778200	9.363300
2121.466533	8.710000
2115.419000	9.009900
2117.801333	8.802700
2123.105683	8.486800
2113.239567	9.062300
2107.887300	9.324600
2118.054367	8.605700
2115.311633	8.755900
2107.864500	9.207600
2111.045817	8.992700
2116.444250	8.658000
2121.272433	8.350600
2113.841567	8.714300
2105.276333	9.177700
2106.493667	9.029600
2115.749383	8.460400
2112.298050	8.640300
2112.761067	8.591000
2103.662017	8.952200
2103.710867	8.941100
2110.915833	8.480200
2110.085433	8.524900
2108.225183	8.504800
2097.225550	9.131400
2097.901350	9.041400
2097.241417	9.059300
2111.081900	8.175900
2097.376600	9.023700
2098.985783	8.858200
2099.932300	8.699100
2094.695267	8.964200
2089.283700	9.248400
2097.915850	8.735400
2099.413883	8.619100
2102.733650	8.373000
2088.875633	9.023500
2086.471533	9.156100
2088.544817	9.001700
2089.208967	8.951900
2091.584583	8.742400
2091.392633	8.749000
2086.088667	9.008600
2080.104550	9.351600
2091.939100	8.649000
2091.226100	8.682600
2077.104900	9.339300
2081.386033	9.053800
2083.580067	8.920700
2082.839850	8.947500
2084.708383	8.707900
2079.981100	8.931900
2090.435983	8.244100
2072.428667	9.301100
2062.657333	9.880600
2074.527167	9.157400
2075.914767	9.034100
2073.289333	9.068200
2073.814417	9.016400
2078.264600	8.691000
2069.716050	9.204000
2071.828583	9.089800
2077.096950	8.754900
2072.344133	8.958100
2078.994033	8.530900
2075.422467	8.688200
2068.287483	9.093100
2078.523117	8.467700
2075.662500	8.635500
2075.872400	8.564100
2073.341150	8.691900
2069.392883	8.894500
2074.604817	8.570600
2068.576633	8.854300
2072.739233	8.550700
2054.297483	9.605200
2062.388117	9.107600
2073.992767	8.375300
2071.811467	8.496500
2066.272150	8.788200
2064.688967	8.781200
2059.230450	9.080700
2063.397083	8.770000
2063.914367	8.709200
2065.027783	8.624200
2066.757433	8.447800
2060.675150	8.625300
2062.645650	8.487000
2051.639183	9.145300
2058.129733	8.741500
2060.993300	8.371200
2053.737700	8.766900
2057.337550	8.455200
2053.589167	8.669000
2048.533483	8.944600
2055.283400	8.518500
2050.931750	8.655900
2042.805617	9.077000
2041.754417	9.098000
2048.429400	8.695800
2049.167850	8.659200
2053.433700	8.389800
2050.307017	8.464400
2043.059100	8.912400
2062.398050	7.761600
2047.321533	8.649700
2053.027983	8.197300
2050.968667	8.230400
2046.045500	8.412000
2046.251550	8.386800
2044.627500	8.460900
2053.583333	7.897300
2044.105883	8.441200
2039.554617	8.564900
2042.102117	8.404100
2040.028317	8.516900
2043.813117	8.308700
2041.315933	8.317600
2035.643767	8.595500
2028.733067	8.977100
2038.378483	8.388400
2031.610650	8.776500
2038.389383	8.347600
2031.923700	8.685300
2037.261000	8.349000
2030.061033	8.749000
2027.066533	8.913700
2034.788850	8.424600
2030.871617	8.647700
2024.929700	8.836800
2026.012183	8.700100
2033.391517	8.139200
2033.102650	8.157300
2024.748350	8.641200
2031.757450	8.214600
2028.481367	8.384300
2027.301317	8.333900
2029.748100	8.175900
2016.806783	8.947000
2024.541783	8.436400
2018.457817	8.693900
2025.409533	8.278900
2029.258033	8.031700
2021.903217	8.463500
2019.593267	8.494700
2018.095667	8.547500
2023.673933	8.158300
2023.230383	8.142700
2022.075067	8.231000
2017.529167	8.476400
2012.771850	8.635500
2023.733417	7.955300
2012.084383	8.594500
2021.192700	8.034900
2014.127267	8.445200
2011.136250	8.612700
2010.618717	8.519300
2011.725283	8.404600
2006.227200	8.674200
2004.881833	8.731000
2012.902033	8.254600
2002.159017	8.895200
2002.798667	8.791400
2009.253817	8.295500
2000.804417	8.788100
2005.300750	8.493300
2006.193433	8.431600
2007.402650	8.347200
2010.482950	8.109300
2013.165400	7.808400
2016.653600	7.569000
1999.584117	8.544800
2005.930033	8.156500
2000.194400	8.428500
1999.187483	8.448700
2000.725233	8.319700
1999.744533	8.382700
1997.871200	8.491200
1999.254467	8.391800
2003.033867	8.040200
1996.979583	8.350600
2002.230000	7.973100
2001.526133	7.984300
1996.238983	8.302600
1989.830983	8.683300
1984.428483	8.886400
1992.495900	8.338500
1992.891950	8.249400
1988.592333	8.523700
1981.935450	8.910900
1987.650967	8.545700
1991.023633	8.311600
1990.660250	8.200200
1987.017833	8.395900
1990.192350	8.174400
1989.575250	8.198100
1978.648650	8.705700
1979.898767	8.608400
1979.562800	8.566200
1983.138533	8.345500
1977.390850	8.688900
1973.996067	8.896100
1982.089533	8.244100
1981.392317	8.259200
1977.424217	8.458400
1979.539600	8.327400
1974.202683	8.620000
1975.190317	8.545100
1968.589817	8.764100
1973.559267	8.473400
1986.501967	7.651400
1984.862567	7.736000
1974.322133	8.244100
1973.093267	8.269700
1968.847400	8.450400
1964.303233	8.728600
1973.938650	8.175900
1984.036067	7.513100
1973.004450	8.103000
1964.868817	8.445800
1970.892750	8.078700
1966.792650	8.249700
1966.991117	8.213300
1964.511867	8.342900
1964.113150	8.351700
1959.662533	8.501500
1963.366083	8.254600
1964.204550	8.214600
1968.017733	7.963900
1964.346350	8.037000
1961.572583	8.185600
1960.036700	8.208000
1959.890167	8.213300
1965.941733	7.819300
1965.986600	7.802700
1966.651000	7.592400
1954.016567	8.309300
1959.771583	7.869100
1955.991583	8.091700
1959.221333	7.893100
1967.304367	7.409600
1960.796950	7.689600
1959.647750	7.650600
1953.664217	8.008100
1952.374750	8.076300
1943.929883	8.541700
1947.555250	8.217900
1942.187150	8.513400
1942.593400	8.488200
1947.822783	8.153500
1946.718417	8.207900
1951.460717	7.886600
1945.498617	8.094800
1938.464900	8.530500
1953.894950	7.599000
1940.832683	8.381200
1941.592317	8.191700
1935.119717	8.578400
1939.519033	8.258800
1935.045617	8.516300
1949.169633	7.654600
1942.135333	8.059600
1935.499600	8.361600
1936.495333	8.230000
1936.524217	8.182100
1927.937717	8.691500
1930.102483	8.554300
1930.282817	8.531900
1929.169800	8.552100
1936.540617	7.983800
1927.282283	8.509600
1930.475150	8.299800
1933.076133	8.135200
1925.624483	8.439700
1920.278533	8.738500
1926.373500	8.328000
1926.860017	8.300900
1929.674700	8.119500
1926.441017	8.288000
1928.534433	8.014000
1930.181867	7.858100
1928.757800	7.943100
1927.820567	7.983500
1923.987300	8.219700
1928.677350	7.936200
1927.340767	7.844900
1922.094533	8.080900
1922.681250	7.995000
1918.067567	8.257700
1919.056717	8.170700
1925.205067	7.781900
1918.195850	8.013300
1916.172300	8.107800
1923.393383	7.648300
1918.056333	7.949800
1913.854583	8.110000
1918.708167	7.732700
1910.095900	8.198400
1912.813733	7.996900
1911.683750	8.065800
1911.001000	8.103300
1911.932700	8.055300
1908.032467	8.118200
1898.666517	8.667500
1913.177850	7.769700
1905.769933	8.224600
1910.192150	7.946100
1911.754467	7.846400
1897.967117	8.602100
1900.419617	8.438600
1897.516383	8.578300
1897.766500	8.581800
1900.010667	8.331800
1906.805083	7.868800
1905.546683	7.908400
1899.473717	8.243000
1906.068367	7.845500
1901.908367	8.093600
1901.879117	7.997300
1907.476917	7.547900
1905.212517	7.629200
1902.554550	7.754400
1898.759367	7.985600
1910.787717	7.229600
1909.371750	7.277100
1906.644700	7.295100
1893.796567	8.021600
1900.382050	7.584300
1896.352733	7.808800
1890.238883	8.106100
1894.222917	7.851800
1889.596867	7.958300
1879.293083	8.554000
1880.754850	8.468400
1878.674533	8.580700
1887.077167	7.958300
1880.558567	8.322200
1893.228750	7.496700
1895.631400	7.348800
1890.431183	7.675600
1888.676517	7.767200
1888.940433	7.604200
1880.175267	8.048300
1885.757150	7.689000
1886.462500	7.587300
1882.312833	7.816000
1878.537100	8.019900
1880.204700	7.903200
1886.126000	7.432200
1886.985400	7.366200
1886.057900	7.397700
1884.654433	7.450900
1876.949050	7.772100
1875.123683	7.843900
1877.586700	7.628400
1874.707250	7.790400
1881.805800	7.367700
1879.967933	7.464400
1873.444317	7.779800
1874.835250	7.669800
1867.523300	8.059200
1872.107133	7.744600
1867.777117	7.989500
1871.421400	7.761600
1866.086333	7.939900
1864.920317	7.973900
1872.576467	7.495100
1874.563850	7.359900
1870.807450	7.457400
1865.272483	7.731400
1875.930650	7.001100
1859.301033	8.028400
1855.428133	8.275600
1861.150700	7.910400
1858.004767	8.060900
1861.817617	7.792400
1861.561317	7.770500
1858.452533	7.942900
1859.505017	7.855100
1862.018817	7.690100
1858.557700	7.894200
1865.262650	7.394400
1855.364533	7.968100
1856.433267	7.867700
1859.429417	7.674200
1850.104383	8.024500
1845.543183	8.229100
1847.511300	8.061300
1847.808317	8.004200
1847.178650	8.034300
1847.461133	8.030800
1847.710667	7.854200
1843.143883	8.090500
1846.743633	7.849000
1859.063333	7.102600
1848.373717	7.572800
1840.268850	8.025600
1836.071717	8.243300
1840.326017	7.954100
1838.854850	8.019000
1841.030067	7.856000
1841.318100	7.818900
1843.988700	7.642500
1850.844467	7.198400
1843.727300	7.473900
1846.179750	7.304100
1841.501800	7.557900
1840.317283	7.616500
1836.978867	7.673000
1837.153550	7.633800
1829.736483	7.989700
1822.424117	8.417600
1834.504367	7.721600
1827.710100	8.125200
1830.796817	7.804400
1831.626333	7.709800
1826.028333	7.982500
1838.211483	7.253200
1827.333967	7.870700
1827.182000	7.902900
1831.209350	7.709100
1832.439867	7.574300
1828.281217	7.583300
1830.482000	7.481100
1820.209317	8.050100
1828.933283	7.504600
1824.277467	7.764200
1825.791550	7.632600
1824.022483	7.752400
1830.681517	7.328000
1827.011300	7.467900
1817.844817	7.901900
1819.249633	7.801300
1819.378167	7.742900
1813.327583	8.081500
1818.276233	7.798000
1827.299950	7.243500
1811.928483	7.993300
1815.216600	7.782600
1810.742850	8.033700
1814.103917	7.832000
1814.290517	7.724900
1820.812533	7.329400
1814.222450	7.704300
1816.569350	7.556100
1809.389967	7.835000
1821.316483	7.103800
1811.669917	7.666400
1807.668700	7.864500
1811.048550	7.630500
1818.595367	7.108100
1813.824650	7.374900
1812.167017	7.464200
1815.128333	7.183900
1808.446850	7.484700
1803.695567	7.764800
1807.240350	7.551000
1807.278283	7.483600
1808.075717	7.313600
1809.695883	7.198900
1799.679583	7.731700
1798.031017	7.815800
1796.302783	7.900600
1801.792217	7.571900
1806.562600	7.097400
1795.080767	7.753100
1798.311817	7.470500
1799.667183	7.393000
1802.736667	7.182200
1794.925383	7.633300
1790.920017	7.805300
1792.260417	7.718900
1790.343967	7.803500
1793.437833	7.618900
1794.252883	7.423900
1792.907217	7.446200
1796.035367	7.216100
1794.366550	7.303200
1791.848467	7.431200
1791.747267	7.433900
1796.740383	7.046800
1793.247733	7.150300
1786.321983	7.518400
1793.501917	7.019000
1793.465883	7.004200
1788.128533	7.320400
1787.193683	7.301500
1794.019450	6.757200
1782.787517	7.403300
1786.060267	7.190900
1784.815967	7.255100
1777.304700	7.542000
1775.336050	7.630500
1767.113067	8.078900
1773.182617	7.706300
1780.857450	7.265100
1778.870250	7.374300
1771.761417	7.665200
1778.236517	7.237100
1782.783383	6.904000
1772.985283	7.474300
1766.820550	7.836300
1772.558933	7.494100
1781.241300	6.828000
1778.822933	6.966100
1773.164800	7.282500
1767.926367	7.583300
1761.905883	7.848700
1772.504283	7.138600
1766.060817	7.479200
1763.413900	7.622100
1773.987117	6.973400
1772.908067	7.025900
1763.926833	7.494100
1762.749933	7.434400
1762.983167	7.393700
1767.353817	7.067600
1759.063183	7.553200
1760.199217	7.463300
1758.261517	7.562300
1759.401600	7.334400
1755.757400	7.525200
1755.485233	7.543600
1750.959800	7.818900
1751.314800	7.652400
1757.242033	7.287100
1755.104350	7.356000
1751.640367	7.555100
1759.454450	7.089600
1752.834967	7.473500
1738.790333	8.152300
1753.866550	7.233000
1749.330133	7.473100
1745.715233	7.679500
1740.882333	7.882600
1745.769600	7.537800
1753.096917	7.052300
1752.385500	7.022400
1746.437617	7.375100
1748.273750	7.246200
1746.256067	7.332200
1753.553983	6.829300
1756.026933	6.629500
1751.127333	6.875200
1749.190950	6.972900
1749.493717	6.911900
1750.443533	6.865600
1733.885133	7.677700
1738.715933	7.403200
1734.051783	7.635700
1736.814050	7.455600
1745.741150	6.913500
1743.317767	7.044800
1739.859550	7.114200
1732.081317	7.589600
1742.542667	6.931400
1741.392500	6.987300
1739.167100	6.969600
1736.120250	7.060500
1729.480050	7.425000
1733.008833	7.168600
1741.188550	6.635700
1743.483967	6.495800
1733.752267	6.984500
1729.119783	7.168600
1724.136450	7.418400
1724.613067	7.361600
1720.219400	7.620000
1724.705767	7.329500
1715.518250	7.842300
1721.915333	7.333900
1725.958717	7.094300
1729.586850	6.882300
1717.958817	7.538300
1718.871233	7.364200
1714.822717	7.580000
1711.998467	7.713800
1729.029983	6.673000
1723.693700	6.992700
1718.911500	7.270500
1717.026317	7.215500
1707.832600	7.734300
1713.524583	7.358800
1714.444167	7.296800
1713.612183	7.351900
1714.708100	7.264800
1701.949167	7.866500
1709.110467	7.424900
1714.584667	7.074500
1708.131683	7.468600
1709.043467	7.348400
1710.382917	7.194500
1708.674200	7.246800
1708.878550	7.171500
1714.231033	6.857200
1715.243000	6.792600
1708.935317	7.106000
1707.768467	7.043300
1712.092667	6.752900
1693.565017	7.785200
1704.624000	7.132200
1696.025600	7.629300
1705.551933	7.046200
1700.868933	7.149700
1706.025933	6.843100
1704.725933	6.858400
1700.216200	7.124700
1701.907050	6.895500
1690.664633	7.509100
1700.502467	6.884900
1695.007033	7.228600
1703.665150	6.686400
1699.262517	6.947600
1694.876933	7.086400
1696.155750	6.929700
1708.736600	6.125100
1698.075317	6.749300
1693.123233	7.045300
1697.981383	6.759100
1697.939450	6.669900
1690.614550	7.033500
1687.426900	7.183800
1690.618417	6.931400
1687.554083	7.140100
1693.370700	6.796500
1689.205583	7.008100
1677.626567	7.530800
1684.466483	7.115800
1679.104567	7.441100
1681.570100	7.284300
1687.015833	6.845200
1690.532933	6.616300
1678.486917	7.253900
1679.571783	7.168300
1682.339983	6.985300
1681.277850	7.051500
1676.128833	7.213900
1678.950533	6.971800
1685.120033	6.550000
1688.248283	6.375700
1677.722700	6.996600
1676.402600	7.066200
1680.704133	6.717100
1679.471900	6.714900
1686.819133	6.255400
1686.352833	6.229300
1685.100167	6.238400
1675.542300	6.686700
1671.948500	6.876900
1676.175083	6.554200
1677.430483	6.444400
1683.030783	6.101800
1674.411683	6.581500
1664.578583	6.977800
1668.079250	6.774000
1668.498483	6.741100
1669.039917	6.698900
1663.005067	6.911300
1660.088200	7.075200
1672.762567	6.297200
1658.935617	7.099400
1659.899800	7.001100
1663.572783	6.769600
1664.018200	6.624900
1665.683717	6.477500
1656.017483	6.995800
1657.514033	6.863800
1664.009767	6.466100
1656.100150	6.960900
1656.202767	6.904400
1649.762533	7.175500
1650.048350	7.133700
1647.790417	7.253600
1653.397217	6.929900
1651.953550	6.994500
1652.086350	6.994200
1651.065050	7.015200
1652.777633	6.883900
1656.979450	6.620100
1646.316183	7.237900
1647.163100	7.114200
1649.171233	6.960400
1644.507567	7.145300
1649.716867	6.839300
1651.790467	6.711200
1653.847183	6.571000
1655.737533	6.322000
1655.725733	6.273100
1653.446183	6.266800
1648.632117	6.541400
1642.540483	6.894400
1639.250833	7.078000
1640.138850	6.849000
1638.704617	6.910100
1637.985267	6.960200
1638.820850	6.914700
1638.984900	6.870900
1632.893483	7.179700
1634.846533	7.045300
1629.538933	7.337800
1624.435967	7.632500
1631.146517	7.201100
1634.369283	7.014400
1638.490967	6.673700
1642.180633	6.411400
1645.681850	6.118500
1638.624750	6.509100
1636.375950	6.630600
1630.302550	6.968400
1627.798633	6.956500
1637.278433	6.377500
1634.302183	6.546100
1644.144833	5.941900
1635.617433	6.266800
1628.968833	6.600100
1632.658717	6.324500
1633.282633	6.264400
1630.776083	6.366400
1620.617300	6.979200
1626.803817	6.546500
1619.038433	6.916600
1617.147517	7.002500
1609.651850	7.401000
1616.003767	7.038500
1624.373000	6.538200
1620.966167	6.688400
1620.928233	6.549700
1613.168200	7.002600
1607.697233	7.333000
1612.091583	7.040800
1609.182367	7.129700
1614.014483	6.868000
1614.011067	6.736700
1615.095700	6.654900
1606.460150	7.163700
1608.280083	7.077100
1610.126533	6.851200
1610.836000	6.795000
1599.560033	7.408900
1610.546850	6.765000
1608.725450	6.835500
1603.648300	7.145100
1601.723550	7.120200
1604.861433	6.888400
1599.952483	7.149700
1603.558467	6.924200
1597.115600	7.281300
1604.520183	6.868000
1595.659283	7.375600
1600.900067	7.011200
1603.841500	6.838500
1606.441833	6.651700
1599.703750	7.014900
1595.136433	7.122400
1609.865050	6.224400
1596.930117	6.920600
1593.922400	7.094700
1603.373817	6.506600
1600.664633	6.648100
1600.916117	6.461900
1600.617500	6.435000
1602.399550	6.228900
1602.789417	6.167900
1599.937750	6.327300
1587.480350	7.056900
1601.389783	6.041200
1590.107200	6.717300
1578.610983	7.411900
1589.501800	6.764400
1587.918733	6.746500
1594.367783	6.268900
1591.771417	6.405800
1582.552517	6.929600
1583.435383	6.877600
1580.378533	7.050400
1584.479100	6.766500
1579.082667	6.958100
1583.820167	6.636500
1580.404050	6.796500
1584.932433	6.523000
1589.040950	6.240000
1581.777567	6.659300
1576.823017	6.780800
1581.041317	6.515000
1579.794133	6.566800
1582.634200	6.383400
1585.082933	6.161200
1579.569500	6.450300
1578.379183	6.436900
1585.154400	6.025800
1576.159867	6.515000
1577.742567	6.394400
1580.029367	6.136400
1567.551167	6.837200
1568.097150	6.695100
1565.311833	6.882400
1563.057067	7.016000
1572.953633	6.405100
1571.111317	6.419600
1559.587517	7.025300
1566.827433	6.567100
1568.033017	6.495800
1567.038250	6.513300
1561.905683	6.703300
1556.433900	7.009500
1569.443450	6.158700
1566.627217	6.305600
1558.093500	6.828000
1560.929583	6.648100
1560.630833	6.496000
1564.567850	6.239100
1559.340900	6.490500
1556.111383	6.684400
1555.944750	6.665100
1554.953817	6.711800
1567.653083	5.768500
1564.786517	5.918000
1553.305967	6.565700
1551.810267	6.667100
1557.769650	6.194400
1545.678900	6.853800
1548.797450	6.612900
1544.974817	6.816200
1561.481200	5.820900
1553.853500	6.258900
1554.313817	6.170300
1551.061583	6.302200
1545.420567	6.605300
1548.065983	6.364900
1545.674117	6.490100
1547.824717	6.357500
1543.076183	6.650500
1544.479017	6.489800
1549.534400	6.173100
1541.521933	6.575200
1543.173117	6.495800
1542.429883	6.530200
1547.408917	6.222800
1546.220950	6.117300
1544.552583	6.185500
1548.216783	5.941600
1548.007267	5.939600
1537.776167	6.441800
1542.359633	6.114700
1538.780117	6.272000
1536.075500	6.421500
1531.965750	6.662400
1532.182633	6.670600
1525.047217	6.932900
1528.748617	6.700100
1532.311650	6.473700
1534.440917	6.335600
1526.645400	6.757500
1530.760700	6.460800
1534.376567	6.242000
1520.106583	7.053100
1523.570867	6.846500
1529.591100	6.450300
1534.538233	6.119500
1528.299917	6.359900
1519.421033	6.841300
1519.845317	6.759200
1521.475050	6.651900
1526.331817	6.360200
1531.752483	6.023500
1531.142300	5.870400
1526.358183	6.104200
1521.831433	6.317500
1526.115733	6.051700
1509.607250	6.910500
1514.115000	6.603000
1515.722767	6.424100
1515.664300	6.437400
1518.837817	6.237500
1517.954567	6.289100
1515.800650	6.247500
1517.493900	6.125100
1507.629517	6.674600
1508.763600	6.589200
1505.669833	6.748600
1513.362550	6.216900
1508.306283	6.499000
1510.689550	6.325200
1510.256400	6.335700
1516.633733	5.944600
1511.649200	6.201600
1503.888033	6.550000
1514.457767	5.908100
1503.162300	6.523800
1510.731800	6.053700
1504.304083	6.410500
1501.282300	6.595200
1506.704867	6.109700
1500.655217	6.424100
1498.726000	6.486300
1499.108283	6.467800
1492.608283	6.842200
1498.684667	6.475100
1496.055850	6.486000
1491.737017	6.742700
1484.123300	7.157400
1496.800600	6.417000
1499.236833	6.213400
1499.394883	6.159400
1492.568450	6.513300
1496.734250	6.257400
1496.975367	6.170600
1496.799567	6.183200
1493.910267	6.265700
1488.290517	6.484700
1489.102133	6.393400
1491.128867	6.222200
1493.998667	6.029900
1493.825867	6.016100
1491.512767	6.111800
1484.864400	6.338400
1494.693433	5.725900
1488.270917	6.059600
1486.150817	6.167900
1486.677683	5.984200
1484.099100	6.080400
1479.306717	6.295100
1477.507417	6.384200
1473.928800	6.604200
1479.522367	6.260900
1479.022883	6.169900
1475.893867	6.315200
1479.241183	6.051700
1477.032800	6.150300
1469.024883	6.590200
1478.292000	6.048000
1468.894317	6.522800
1471.315333	6.283600
1475.632983	6.018100
1469.049867	6.369500
1469.708933	6.327700
1462.544900	6.739500
1472.190700	6.126000
1468.891867	6.214700
1470.649733	6.122500
1476.134567	5.772800
1481.328283	5.417800
1472.334583	5.806600
1475.512317	5.604800
1476.145483	5.534200
1467.399133	6.046900
1457.480283	6.483700
1457.322283	6.499900
1459.946350	6.297300
1466.165167	5.936300
1468.097383	5.789500
1464.367417	5.998400
1453.644683	6.645700
1456.365967	6.466400
1456.250217	6.392600
1452.302217	6.642800
1455.933217	6.425000
1457.220317	6.335600
1460.184633	6.062200
1458.736500	6.050400
1465.595600	5.548200
1457.579733	6.030700
1454.881650	6.167100
1459.366317	5.901200
1455.507400	6.084600
1452.672533	6.114700
1453.654550	6.025500
1448.834917	6.291500
1452.538583	6.050800
1449.453583	6.076000
1446.201717	6.243500
1448.071083	6.089500
1451.251983	5.887900
1451.008133	5.860300
1437.614483	6.654100
1440.895767	6.317000
1440.073600	6.340200
1444.168583	6.020200
1447.417117	5.815700
1435.472250	6.528000
1449.223033	5.687800
1446.594300	5.716800
1446.691950	5.636400
1443.718033	5.726500
1437.846433	6.073300
1448.853050	5.373900
1440.794550	5.853000
1446.387717	5.359400
1436.320783	5.920600
1443.135967	5.490500
1439.300717	5.709500
1426.392667	6.422600
1426.158600	6.323100
1433.683450	5.828400
1431.304117	5.927300
1429.485883	6.021700
1431.871083	5.860300
1433.836450	5.734200
1430.935933	5.816200
1429.941550	5.865300
1428.918133	5.888500
1430.116700	5.800800
1426.299383	5.903500
1429.554350	5.680500
1422.296733	6.026800
1427.290450	5.725800
1427.505500	5.714700
1431.235183	5.470300
1422.175717	5.874800
1419.516600	5.993700
1417.783350	6.057000
1416.808683	6.103600
1418.975467	5.944700
1425.321467	5.568500
1417.243567	5.941100
1418.547517	5.794400
1406.301600	6.502800
1409.166683	6.301000
1417.540867	5.803700
1414.913850	5.951700
1413.446550	6.001200
1419.130417	5.516000
1423.528500	5.233500
1423.024833	5.237200
1414.058750	5.735400
1412.547267	5.697500
1408.756883	5.885500
1405.221217	6.037400
1410.438533	5.732200
1409.284333	5.767300
1410.116333	5.718100
1406.161700	5.809200
1412.846800	5.366400
1417.366767	5.002700
1411.031067	5.369300
1411.437967	5.349500
1404.836183	5.735200
1396.369883	6.083200
1404.304217	5.608100
1394.547067	6.159200
1399.228650	5.894400
1408.674883	5.218600
1396.258533	5.876200
1404.491617	5.338400
1395.792967	5.854400
1407.585883	5.128600
1394.527083	5.930800
1390.178100	6.138900
1400.177417	5.483300
1404.511200	5.185500
1398.700167	5.488100
1394.543850	5.712300
1392.881217	5.795300
1386.846967	6.107900
1394.941167	5.492300
1394.547733	5.492800
1389.669567	5.788400
1395.333833	5.430700
1386.475033	5.822200
1371.054600	6.709800
1373.001817	6.546800
1387.347650	5.680200
1384.020850	5.871900
1390.847833	5.448100
1387.870283	5.472100
1389.001817	5.347700
1386.002850	5.466900
1378.826850	5.887200
1377.452067	5.949200
1371.081350	6.318300
1374.888950	5.994000
1377.962717	5.811800
1375.361633	5.953300
1379.257600	5.707500
1367.598983	6.334900
1376.580950	5.700000
1369.147300	6.108900
1374.024367	5.759600
1377.126167	5.568500
1376.430567	5.608700
1369.590033	6.022300
1375.319417	5.512100
1363.573133	6.196000
1358.153100	6.535800
1370.296750	5.805900
1362.522183	6.133900
1364.135567	5.998700
1367.243400	5.742300
1368.628400	5.638500
1360.770833	6.090700
1365.499017	5.783600
1367.034033	5.566900
1362.807850	5.755800
1361.240383	5.779000
1358.681350	5.909100
1363.357517	5.600600
1362.420567	5.644700
1359.738667	5.771300
1364.775500	5.438400
1361.746983	5.608300
1363.975333	5.432200
1357.942633	5.710300
1360.704967	5.393300
1355.137467	5.704700
1353.778683	5.722600
1353.776317	5.710400
1350.722383	5.878900
1351.361700	5.831400
1348.911700	5.820900
1350.427783	5.721700
1345.443983	6.029200
1354.905200	5.457000
1353.127083	5.392900
1349.625250	5.580900
1352.187733	5.393500
1358.151300	5.021700
1351.120217	5.369900
1345.248117	5.717900
1343.987083	5.800000
1342.357067	5.879900
1333.877433	6.327700
1340.498150	5.841300
1340.921700	5.805600
1342.756217	5.687000
1342.762900	5.607900
1336.792850	5.846400
1341.961750	5.508300
1341.085850	5.561100
1340.658400	5.550600
1341.675333	5.324800
1338.889383	5.467300
1338.200900	5.465700
1332.109500	5.829900
1328.216433	5.995300
1324.530150	6.206400
1331.541033	5.767300
1342.453283	5.088100
1343.280850	4.957500
1328.670467	5.782100
1335.307867	5.319500
1331.306817	5.511500
1331.057667	5.511500
1323.882017	5.946200
1329.052767	5.609000
1327.702350	5.637900
1331.717183	5.411800
1333.957850	5.233500
1325.482000	5.654700
1328.829933	5.376400
1317.140117	6.038000
1329.898767	5.237000
1322.993800	5.631300
1322.846483	5.613100
1325.977833	5.358100
1319.249100	5.648700
1321.378633	5.482300
1309.864067	6.147200
1313.509150	5.912400
1321.753800	5.258400
1321.413617	5.247200
1317.606183	5.408800
1314.875400	5.549400
1306.470433	6.047800
1307.234317	5.988800
1312.223650	5.542500
1316.049883	5.280100
1299.082733	6.235300
1310.701500	5.506800
1312.294617	5.377700
1315.224617	5.213900
1311.289150	5.331900
1309.634783	5.351200
1311.889917	5.159300
1311.251700	5.153100
1311.783217	5.101100
1312.767967	5.033000
1308.665317	5.239100
1305.435733	5.262100
1301.838633	5.461300
1297.040367	5.744600
1295.353417	5.855600
1299.094950	5.472000
1304.501083	5.125300
1300.008117	5.348900
1297.268200	5.495700
1291.072333	5.832700
1297.403867	5.490500
1295.095217	5.561300
1293.969700	5.613600
1295.296483	5.474800
1300.179017	5.174900
1302.474633	4.999900
1292.990600	5.548200
1289.989333	5.563900
1289.297283	5.575300
1285.345983	5.789500
1292.763100	5.352600
1299.557367	4.855100
1291.132400	5.215800
1288.110417	5.366900
1284.999300	5.488800
1283.399300	5.582100
1284.978583	5.458600
1294.681817	4.829600
1283.730300	5.337300
1281.642100	5.425800
1280.044117	5.494400
1282.396967	5.342600
1278.254717	5.572700
1271.941283	5.958100
1275.196167	5.599400
1277.777667	5.427200
1279.570283	5.240500
1279.703283	5.255200
1280.157617	5.215100
1272.331233	5.683900
1271.118350	5.579700
1270.478050	5.610600
1276.083033	5.291200
1279.874950	5.042700
1274.350950	5.285100
1263.683117	5.832500
1275.930017	5.096300
1266.199383	5.637400
1274.974550	5.085300
1266.415817	5.579000
1262.235967	5.818100
1269.205550	5.293800
1256.868683	5.980900
1261.865817	5.642600
1270.849717	5.091500
1269.784483	5.129200
1264.906850	5.418300
1261.513450	5.607600
1268.256117	5.210300
1255.952733	5.809300
1257.594133	5.708200
1261.158517	5.337200
1260.943683	5.323600
1249.261567	5.938400
1255.457367	5.570900
1259.789100	5.303400
1262.644300	5.120100
1259.240783	5.234200
1257.120583	5.279200
1257.070600	5.235600
1255.096783	5.331400
1250.146233	5.607100
1256.346033	5.224900
1253.029833	5.368000
1255.903133	5.074300
1248.968067	5.472800
1249.537383	5.407900
1242.800017	5.818100
1249.995317	5.329100
1252.601300	5.155200
1248.294850	5.364600
1248.806033	5.333200
1253.537633	5.035900
1249.612933	5.264200
1247.514683	5.213800
1241.463533	5.539300
1239.090200	5.623500
1240.285167	5.546300
1239.064533	5.605900
1243.837667	5.311400
1238.389200	5.529300
1244.671400	5.169900
1239.449483	5.482300
1235.408233	5.716000
1240.979883	5.231500
1239.180900	5.289000
1246.197533	4.797100
1235.489800	5.420400
1239.224067	5.192300
1229.480533	5.762200
1230.703283	5.595400
1237.296900	5.189100
1233.098567	5.380400
1229.756783	5.598700
1238.837150	4.957500
1235.161500	5.082000
1230.647700	5.325000
1235.413267	4.996700
1229.303383	5.312800
1226.807050	5.445000
1236.659967	4.828400
1230.391050	5.059500
1229.881050	5.035800
1221.574800	5.467800
1222.939433	5.365000
1224.900000	5.231400
1222.390783	5.382100
1218.756550	5.544300
1223.357750	5.245200
1222.484900	5.250300
1221.490183	5.269000
1224.680617	5.063300
1220.768733	5.276800
1226.924050	4.726500
1215.476017	5.376500
1210.553400	5.653800
1209.916217	5.685200
1212.020650	5.375100
1213.616433	5.263000
1218.733233	4.936300
1213.212767	5.272700
1214.577867	5.114600
1214.960950	4.966800
1210.063817	5.220800
1213.392633	4.969900
1206.953067	5.314400
1214.684317	4.789400
1212.309683	4.912300
1206.237017	5.266700
1207.336867	5.168900
1207.913483	4.955500
1205.583450	5.090700
1197.949100	5.544000
1207.775133	4.995700
1210.103750	4.715700
1206.538600	4.901100
1202.572950	5.070900
1207.279217	4.775600
1204.254900	4.954800
1203.867633	4.977100
1200.409083	5.138200
1205.829717	4.780700
1195.927433	5.322700
1194.373517	5.413400
1195.081617	5.347100
1199.540517	5.065700
1185.921983	5.726500
1200.368600	4.841400
1197.825667	4.975700
1190.776017	5.380400
1197.032067	4.949000
1196.244417	4.853900
1195.340217	4.911500
1189.148950	5.248800
1202.625750	4.404000
1196.029800	4.777800
1185.652000	5.382600
1189.433867	4.982900
1193.351867	4.688000
1194.505650	4.575000
1187.782683	4.962400
1188.589883	4.795000
1189.665733	4.687300
1186.489133	4.807600
1185.864433	4.865200
1191.169900	4.502700
1190.342817	4.525100
1183.718350	4.780200
1188.881967	4.419200
1175.118233	5.158000
1174.464383	5.202700
1170.726083	5.417500
1170.186633	5.455600
1182.830300	4.612800
1167.446500	5.447400
1172.947683	5.118100
1176.249633	4.921300
1172.415833	5.092600
1173.952650	4.847700
1169.774167	5.070500
1165.195250	5.336400
1167.907267	5.147300
1166.986700	5.200500
1173.543000	4.797000
1166.166983	5.192200
1175.421917	4.609700
1169.150717	4.903100
1171.704783	4.741300
1171.731417	4.698500
1175.126617	4.466900
1172.705733	4.532800
1161.113533	5.175100
1169.940917	4.587800
1162.823933	4.982500
1164.158233	4.888000
1163.947833	4.879300
1159.050067	4.996700
1159.762750	4.918800
1169.961317	4.271900
1160.419100	4.832100
1159.691500	4.785900
1158.200750	4.821300
1152.662933	5.086600
1151.906267	5.124500
1153.226117	5.023700
1152.268017	5.099000
1155.429283	4.855900
1145.690617	5.326100
1146.550767	5.317400
1149.278883	5.097100
1148.023967	5.161700
1159.520300	4.462500
1157.139933	4.567000
1159.495317	4.282100
1145.146117	5.098700
1146.444050	5.009400
1148.165017	4.902200
1143.579083	5.058700
1141.802817	5.115200
1139.271850	5.183400
1142.961867	4.971200
1139.457650	5.174100
1145.229383	4.806400
1139.222600	5.026800
1146.388317	4.561400
1143.892667	4.628600
1133.833450	5.189400
1131.097250	5.346900
1129.168783	5.466700
1139.617650	4.817400
1139.729500	4.762800
1144.590433	4.455100
1140.310983	4.702000
1133.620283	4.998700
1139.525617	4.556000
1138.337167	4.555400
1140.100267	4.415300
1134.513133	4.728700
1129.680667	4.988300
1130.536250	4.918800
1128.469533	4.912900
1126.659433	4.987300
1124.573483	5.047300
1121.721300	5.193000
1131.179500	4.633200
1131.595750	4.583100
1126.215267	4.732100
1120.571667	5.046200
1119.660067	5.114600
1121.571133	5.000200
1118.463217	5.039000
1125.041683	4.596100
1128.308667	4.362800
1120.417700	4.849800
1112.146417	5.336600
1115.098817	5.141900
1116.856517	4.996700
1120.041017	4.787000
1117.904100	4.872600
1120.029167	4.730000
1110.955550	5.265600
1118.562717	4.794200
1124.383267	4.388600
1116.540167	4.688000
1115.225050	4.762800
1117.869567	4.565600
1123.428183	4.155700
1117.298400	4.399500
1113.207700	4.612500
1103.062717	5.156600
1107.509333	4.876000
1108.117433	4.828600
1100.011667	5.346500
1103.857217	5.030900
1106.845483	4.836700
1109.282800	4.633500
1105.917383	4.814500
1106.037317	4.783100
1106.824283	4.704400
1105.652900	4.564800
1112.846083	4.114000
1095.313883	5.145400
1094.500883	5.185000
1096.627167	4.941500
1090.772950	5.247900
1095.832083	4.937200
1094.552950	4.961400
1098.889417	4.683800
1090.842883	5.157400
1091.165183	5.099800
1092.445533	4.867000
1091.180417	4.925300
1094.960717	4.656500
1097.006967	4.507100
1087.749317	5.027900
1089.945300	4.880100
1082.192383	5.221300
1090.981783	4.687300
1097.895567	4.271900
1100.952667	4.064900
1091.522267	4.478900
1090.557567	4.497200
1092.344217	4.333100
1084.215250	4.787700
1086.390900	4.646100
1090.956633	4.340500
1089.424433	4.389100
1086.498867	4.506200
1084.106050	4.614600
1084.200000	4.603500
1084.632050	4.560600
1080.018783	4.813300
1077.443533	4.803400
1076.482033	4.844200
1083.601833	4.407100
1075.632400	4.859100
1079.225167	4.602200
1082.820433	4.248100
1086.528200	3.977100
1080.571350	4.269900
1077.635933	4.420900
1072.496867	4.718000
1073.263867	4.646900
1068.660833	4.874200
1075.882000	4.425000
1075.617767	4.383800
1075.183700	4.377300
1076.163867	4.295000
1058.577783	5.337700
1068.683000	4.575300
1068.276800	4.604100
1068.940567	4.524800
1062.616367	4.900400
1057.403533	5.076100
1065.424167	4.574000
1062.215133	4.703800
1068.237717	4.352300
1066.935517	4.413200
1065.274333	4.489900
1067.243367	4.271600
1053.792467	5.009900
1055.820083	4.824400
1070.092267	3.936800
1059.159350	4.590600
1060.100083	4.498000
1058.059333	4.467700
1056.814917	4.510400
1056.196917	4.539200
1051.928733	4.789900
1052.833967	4.718600
1060.196000	4.227000
1060.279883	4.203700
1058.396033	4.264600
1058.195567	4.253000
1055.817167	4.346600
1047.331050	4.828800
1060.636800	3.899400
1059.132767	3.910100
1042.944533	4.786600
1060.666850	3.726000
1050.560900	4.297800
1053.315750	4.117200
1055.747700	3.813900
1048.850167	4.191800
1048.198733	4.155700
1050.699633	3.983200
1051.318217	3.932000
1050.976367	3.941900
1044.537067	4.240100
1036.743883	4.608700
1037.284183	4.560700
1031.311650	4.910400
1035.317983	4.634800
1036.338867	4.536800
1040.342017	4.271900
1041.169650	4.178400
1038.634733	4.314100
1034.960217	4.527200
1040.955550	4.128000
1040.380767	4.024700
1035.342450	4.295400
1032.688567	4.392200
1026.283217	4.766300
1024.238400	4.887300
1028.201250	4.638000
1020.478833	4.930600
1028.613800	4.417500
1028.729167	4.398200
1027.930500	4.431000
1026.776450	4.392000
1030.757233	4.114300
1028.364483	4.213300
1024.118367	4.426400
1024.920133	4.343200
1021.624517	4.512800
1028.516767	4.041800
1025.342067	4.111100
1022.266217	4.309700
1023.174500	4.236900
1019.852017	4.415300
1015.018467	4.598900
1015.430950	4.549200
1016.899233	4.398700
1019.718450	4.208100
1017.212867	4.355000
1023.687583	3.949300
1019.320400	4.061400
1020.260700	3.956700
1021.770683	3.795100
1014.890867	4.185200
1019.576217	3.876800
1015.918250	4.076400
1009.928500	4.282200
1012.702500	4.101300
1005.220617	4.471700
1008.713433	4.257100
995.672883	5.041600
1005.255500	4.480800
1012.578950	4.018800
1007.011333	4.329400
997.760900	4.858500
1007.439650	4.275600
1000.531933	4.580500
1009.477283	3.975400
1008.006783	4.040500
1005.212467	4.155500
1002.229300	4.303200
1004.237000	4.192200
1003.072283	4.205500
1004.190933	3.990400
999.743600	4.221900
999.768483	4.172500
999.621150	4.166700
994.896867	4.443500
995.890967	4.379300
984.301733	4.894300
993.847850	4.295700
991.080267	4.427900
995.562917	4.160000
996.997983	4.000000
995.070817	4.090100
991.365333	4.195000
984.551333	4.601500
1000.840500	3.619500
993.172883	4.063900
991.043917	4.071500
991.701383	3.967900
994.453833	3.738700
991.757750	3.864000
984.218650	4.281900
984.134267	4.264700
988.265000	3.984000
986.815617	4.017200
982.092000	4.299900
980.571983	4.361500
984.142817	4.118900
983.461950	4.075500
982.656450	4.081800
984.085683	3.917800
979.462617	4.195700
981.478367	4.071500
982.683417	3.970700
970.486233	4.533100
973.254983	4.368100
985.711750	3.543600
979.533950	3.890100
981.559217	3.744500
973.735967	4.185800
959.398700	4.902300
970.796533	4.206100
972.728100	4.091400
978.385733	3.749200
965.285183	4.390600
963.707417	4.465100
963.838333	4.368100
964.198800	4.338600
964.969050	4.277400
965.622983	4.216600
958.773033	4.478200
966.084417	4.022600
963.672283	4.163500
962.730133	4.213900
969.193250	3.801300
957.818400	4.347600
951.896600	4.683600
960.274433	4.115800
960.530683	4.081600
966.083517	3.754400
960.094817	4.091000
948.994300	4.615800
959.002200	3.996600
946.848250	4.626600
948.133967	4.553900
950.843333	4.382500
952.716817	4.279700
950.751817	4.300700
953.172700	4.117200
945.314000	4.513200
948.849117	4.295600
946.429567	4.436300
947.100683	4.398400
954.740117	3.785900
950.082183	4.033900
940.410267	4.565600
943.992283	4.340500
949.035950	3.937200
941.923917	4.292900
940.303950	4.360200
938.687300	4.427700
939.944400	4.363500
942.640767	4.198700
944.636300	4.077000
946.742433	3.805000
944.905717	3.887000
950.343783	3.496900
946.803183	3.675100
943.538683	3.858100
937.713650	4.182300
940.214733	3.859300
931.441283	4.346800
940.982367	3.785900
935.916717	4.090100
935.034450	4.025400
930.443983	4.238200
931.667550	4.107600
933.798067	3.969500
931.824000	4.066500
929.127433	4.223500
929.042867	4.106900
923.807350	4.350000
940.363900	3.313800
931.872500	3.791100
932.824333	3.739000
928.228433	3.969100
930.206717	3.808400
925.889017	4.019300
925.588400	4.013700
917.795950	4.469100
922.856033	4.138000
922.543500	4.119600
931.935800	3.534900
919.925317	4.159100
922.377933	4.009900
925.532583	3.805000
926.650767	3.722900
916.104233	4.163500
916.257033	4.152100
920.276650	3.902400
915.609533	4.157200
910.815450	4.306200
910.519167	4.292000
912.378950	4.172700
909.272750	4.325100
911.522133	4.154500
911.458800	4.162800
910.585467	4.102700
899.361183	4.697500
914.227483	3.759700
912.336700	3.865200
905.904017	4.210700
907.247533	4.118500
907.281317	4.083800
905.067883	4.188400
910.754617	3.803600
906.085900	4.044600
909.937617	3.801200
916.007283	3.424000
914.496167	3.454700
904.594317	3.913400
902.534917	4.001300
906.948750	3.724200
900.922683	4.078600
901.017550	3.943200
897.768667	4.102700
904.005517	3.715100
907.884083	3.476800
901.889167	3.831800
904.469583	3.660700
904.531067	3.626300
902.564367	3.731000
895.691117	4.115300
895.903200	4.102500
888.348017	4.302500
886.080600	4.367100
885.738250	4.259700
886.022317	4.198100
879.727417	4.577000
881.038217	4.496600
889.282817	3.983600
902.389433	3.164200
891.088767	3.823100
880.268667	4.449200
886.122017	4.100600
890.095150	3.856200
891.549650	3.683100
888.466217	3.711800
887.869267	3.696200
877.107400	4.203000
882.473783	3.879400
880.520333	3.817300
883.883367	3.609500
885.874317	3.472400
887.965683	3.318700
882.284200	3.522300
881.686983	3.515200
877.577583	3.741400
878.139317	3.695000
875.008650	3.860700
875.142150	3.843000
871.951500	4.018800
876.672400	3.737400
875.118600	3.795600
872.792333	3.944800
872.447817	3.650300
867.844217	3.867800
866.018683	3.993700
872.442300	3.583500
872.435550	3.577800
870.133833	3.707200
870.013617	3.692900
872.049617	3.557300
863.969117	3.904100
864.163217	3.699200
868.123417	3.415700
860.462583	3.868300
860.860933	3.860200
856.184133	4.144600
857.978833	4.018300
861.541250	3.611700
857.229133	3.859300
860.560333	3.652000
860.011517	3.657200
863.177850	3.349800
850.903817	4.026500
852.824217	3.925700
853.183617	3.920900
853.201600	3.920700
847.695350	4.251900
854.629300	3.842400
857.041800	3.687600
850.072100	3.911100
849.625383	3.900700
846.100883	4.103200
850.406133	3.844900
854.571383	3.590800
859.107350	3.304500
845.679383	4.104100
851.109917	3.763700
846.960917	3.906500
845.185650	3.753000
843.122967	3.856700
838.134917	4.170500
839.427217	4.104800
841.154250	3.995100
849.023383	3.510100
843.359533	3.752500
847.116017	3.511700
838.946000	3.981000
843.943867	3.671300
830.715750	4.381200
835.249617	4.088000
839.658350	3.769500
841.229217	3.655100
847.258383	3.208900
836.433717	3.847700
840.975783	3.545800
833.256650	3.960300
833.033033	3.838300
833.262650	3.758100
830.848067	3.885500
829.432717	3.948800
840.077100	3.230700
831.520133	3.675700
826.249700	3.903900
827.329967	3.757700
825.177033	3.862600
829.229233	3.620800
824.747250	3.865800
826.154300	3.699300
827.238400	3.622200
828.533717	3.492200
830.452783	3.350200
824.523183	3.669400
821.601233	3.820600
827.300900	3.352500
819.453483	3.750700
801.681650	4.749600
822.689867	3.492200
818.244867	3.732800
815.222300	3.900600
825.055400	3.182700
817.658617	3.590600
810.535950	4.006200
808.459983	4.099300
817.400550	3.464400
815.209583	3.502600
806.306050	3.995700
814.887083	3.436900
813.270767	3.484700
816.710700	3.274500
813.533033	3.404500
815.897183	3.189400
813.272917	3.336200
813.851050	3.288000
811.196817	3.388100
803.614500	3.720300
810.012817	3.302300
806.678217	3.460700
803.530950	3.625200
799.356233	3.838300
804.613833	3.523000
796.137483	3.900400
802.868900	3.445500
800.446383	3.544600
801.892800	3.453000
790.294267	4.129400
795.525517	3.814700
799.022500	3.479400
800.123883	3.354400
790.710033	3.890800
796.086517	3.560000
796.358850	3.537900
790.703783	3.850000
799.656967	3.291800
794.726217	3.514400
793.806100	3.543900
800.799933	3.097000
801.159700	3.080100
796.755983	3.196000
786.926567	3.752900
775.761767	4.298600
779.381200	4.129800
790.938017	3.414800
785.566283	3.701200
782.283400	3.762900
782.170650	3.717300
786.317750	3.438000
778.264617	3.885500
784.625250	3.503400
783.226183	3.587200
773.434667	4.118900
788.283017	3.182000
777.240067	3.814400
782.997100	3.446100
787.297033	3.070900
784.055733	3.163300
769.507350	3.974700
777.380083	3.502600
776.810400	3.522000
769.495967	3.948200
777.994617	3.388100
776.811033	3.325000
776.385200	3.339300
768.474783	3.794500
775.633900	3.330600
773.299433	3.310900
760.022267	4.059500
773.538217	3.218300
776.210700	3.037200
774.905517	3.127100
770.100083	3.391300
769.240367	3.369200
769.419750	3.324300
774.984533	2.942200
771.574567	3.142100
759.102600	3.872100
765.176450	3.488400
755.062000	4.006200
767.825867	3.250100
765.702700	3.343200
766.838650	3.260100
770.827933	2.903800
753.166000	3.861900
757.024967	3.604700
750.663800	3.957000
753.527400	3.780300
765.662250	3.037200
755.567217	3.619100
755.701550	3.525600
757.842683	3.339700
752.991733	3.578500
759.444917	3.174500
759.000317	3.166100
754.574817	3.418700
756.293617	3.165800
751.072033	3.413500
753.391633	3.192700
746.957700	3.558600
751.766250	3.239100
749.814083	3.346900
746.736900	3.456000
747.412600	3.417900
746.814300	3.445500
747.237233	3.401200
734.108183	4.124800
739.006433	3.814300
742.905333	3.523600
749.038167	3.155900
739.441400	3.689400
745.373350	3.355800
739.385967	3.563300
739.080033	3.520300
744.414367	3.125000
748.363567	2.885600
742.173650	3.210300
741.151283	3.271900
738.410583	3.362500
738.111967	3.262700
730.561783	3.677500
729.949050	3.694500
732.670100	3.528000
733.960650	3.317100
734.788583	3.244600
729.269317	3.515000
723.101617	3.872600
731.598133	3.373600
731.369883	3.369100
729.942817	3.404300
738.646850	2.855400
736.726183	2.879800
732.088233	3.134800
731.207350	3.140400
732.103700	3.075600
734.487200	2.765700
739.454400	2.447100
727.380017	3.095600
729.552633	2.968300
728.224450	2.958900
733.863750	2.512500
730.154283	2.600500
722.744333	3.048100
719.753150	3.203700
723.070667	2.983400
723.772833	2.879800
720.424933	2.985100
720.846417	2.957900
722.988967	2.804000
715.343017	3.210800
719.601133	2.833900
715.936183	3.040000
716.998133	2.940100
711.644983	3.262900
709.943100	3.370500
718.670983	2.848300
719.106333	2.708500
711.496517	3.125900
710.935233	3.007300
703.400567	3.460700
705.192450	3.369600
705.977183	3.315100
706.229983	3.130300
705.481717	3.186200
710.853933	2.843500
709.140400	2.928300
701.008783	3.299500
706.618600	2.889000
700.323833	3.229000
700.655250	3.176400
688.856333	3.844600
694.337033	3.529900
697.133317	3.351800
702.536517	2.984300
704.660033	2.832100
703.815117	2.843900
699.271567	3.099500
692.805000	3.483900
690.535133	3.591400
688.102333	3.610000
702.032433	2.751400
693.344683	3.208000
695.761950	3.053100
688.732217	3.450200
695.908067	3.004400
689.836467	3.196100
694.990083	2.879800
682.892533	3.588400
689.889183	3.162100
688.698500	3.034500
686.148800	3.166200
683.774633	3.289900
692.175817	2.783300
686.164483	2.959300
685.464833	2.986300
681.979283	3.155800
673.483867	3.641000
674.545317	3.492200
670.535967	3.742100
677.659550	3.334800
677.757933	3.293500
678.208483	3.190600
675.859083	3.218800
669.610367	3.568400
685.042717	2.620700
670.633000	3.469200
667.886333	3.629200
669.915833	3.524500
664.477017	3.684500
669.042850	3.412800
670.467767	3.316700
673.665500	3.122400
672.146283	3.084400
669.518650	3.199800
662.808317	3.542900
664.003050	3.474900
670.738300	3.041100
661.639833	3.583900
661.650717	3.493100
665.413567	3.211700
664.427450	3.222900
667.720283	3.012100
666.259617	3.089600
663.983367	3.221900
667.946367	2.949500
664.871083	3.066100
664.082317	3.096800
664.094717	3.083000
663.577167	3.065900
669.370050	2.584200
663.766067	2.849600
653.270817	3.421400
651.015350	3.539400
663.197750	2.786700
663.541417	2.729900
657.519633	2.935000
648.729600	3.438300
658.473783	2.823100
658.570983	2.793400
655.404433	2.972200
651.421750	3.187200
654.100917	2.930900
653.032883	2.996500
659.844817	2.576000
653.002250	2.975400
648.910300	3.101400
643.731817	3.341600
639.174667	3.596300
646.098883	3.153400
651.007750	2.856000
656.469583	2.508700
651.700500	2.732400
647.350267	2.864000
648.858700	2.736900
646.472000	2.811900
649.810200	2.632800
646.135750	2.811000
640.828417	3.108500
647.683800	2.533800
634.147050	3.343800
630.838450	3.522600
630.082717	3.572300
639.316433	2.947300
640.091400	2.866800
635.831600	3.080100
634.259550	3.159300
625.116117	3.712400
632.591100	3.256500
625.674333	3.538600
638.459333	2.719000
636.347033	2.794600
636.195283	2.752900
628.180550	3.182700
628.119067	3.199100
629.508250	3.009600
630.590267	2.852900
631.987850	2.734800
626.819517	3.015200
625.767650	3.069900
628.372000	2.890500
629.681083	2.773600
634.525967	2.385500
633.227333	2.422900
624.639367	2.910800
622.771233	3.017200
614.749917	3.357800
622.078933	2.904100
619.787700	2.959800
619.657433	2.967700
612.731750	3.343800
622.186967	2.783000
626.934333	2.448400
623.796533	2.590000
611.742133	3.282400
618.439000	2.854500
617.385483	2.908000
613.013850	3.144000
614.462883	2.942500
614.132017	2.890400
609.574067	3.125000
609.008150	3.162600
616.071667	2.620700
606.326467	3.146000
613.453000	2.711700
608.842950	2.948100
612.135533	2.734600
617.798500	2.359200
612.886217	2.636300
606.509733	2.858800
599.657800	3.221400
607.714800	2.730600
600.732883	3.144400
608.789883	2.600500
605.635400	2.760000
606.224033	2.654500
616.050450	2.034000
606.642417	2.537600
603.068717	2.729000
597.600183	2.933200
604.449300	2.471100
591.678217	3.177500
596.169233	2.894200
597.836133	2.782300
599.460983	2.685100
600.172817	2.524100
596.685633	2.662000
589.913583	3.079000
594.468200	2.793900
593.070483	2.837200
589.964717	3.007700
589.355217	2.990300
593.349267	2.629400
589.576783	2.841100
590.502550	2.777100
586.874783	2.954500
588.635333	2.786500
581.578617	3.175400
592.662833	2.458900
589.655850	2.624700
582.995283	3.007300
589.855333	2.569000
580.800267	2.981900
581.215033	2.894200
586.521567	2.510300
583.793150	2.676000
579.127383	2.946700
584.278667	2.629400
584.569500	2.449500
580.590700	2.673900
588.804283	2.154700
576.032233	2.894200
575.613467	2.796800
575.815267	2.729900
584.598867	2.201900
568.179067	3.117800
581.739683	2.275300
568.966417	3.058100
580.431000	2.333400
578.095467	2.417600
581.334467	2.189300
570.031317	2.781800
569.286067	2.807900
574.423883	2.482000
568.333100	2.829000
567.241283	2.752000
571.269267	2.506100
570.676717	2.527100
566.773750	2.747400
570.457000	2.373000
562.209933	2.803300
569.022900	2.367600
557.313650	3.020100
561.658200	2.735100
571.723433	2.143300
555.782933	3.021700
556.562067	2.952800
557.616967	2.799800
558.917683	2.756500
568.941333	2.141200
558.144050	2.760000
559.713767	2.506100
563.552967	2.251700
562.921183	2.275300
558.160167	2.514500
550.342333	2.906200
548.468817	2.940800
554.338850	2.559300
559.198367	2.219900
559.386400	2.190600
550.668483	2.686000
545.599750	2.928300
557.607083	2.092300
552.167917	2.379200
552.738983	2.264800
557.245000	1.991400
549.762600	2.422200
550.144317	2.384300
543.432233	2.600500
542.818500	2.624400
541.475900	2.694900
542.226500	2.641800
538.524733	2.725600
537.075450	2.803800
531.060467	3.125000
535.502150	2.830200
541.032383	2.509600
539.040767	2.625200
536.378450	2.741100
534.199300	2.847900
530.424017	3.044600
531.627600	2.966400
531.455183	2.971900
534.584333	2.784400
530.940433	2.936200
533.518767	2.652200
534.811167	2.549600
535.713483	2.462500
534.290267	2.477600
527.888450	2.749200
526.180133	2.826400
526.277183	2.734000
530.148667	2.490800
525.039250	2.791200
520.181883	3.077500
527.083267	2.537600
520.236317	2.943200
534.094267	2.074700
520.401950	2.887800
531.561200	2.155500
526.425217	2.420600
515.300350	3.039600
523.846317	2.491400
514.538600	3.024300
514.153600	3.027300
513.220350	2.967000
507.531967	3.266300
512.996183	2.904700
516.720450	2.648400
525.856183	2.104000
518.882983	2.497000
517.493600	2.476200
516.330233	2.471500
520.030117	2.221100
516.900283	2.338900
521.132950	2.067600
514.506500	2.435100
514.100400	2.429400
517.397300	2.133300
515.501400	2.241600
512.280217	2.396900
507.623467	2.657000
509.834300	2.380200
504.429167	2.694200
517.265867	1.893500
510.673067	2.273600
511.305750	2.046300
501.555133	2.625400
502.377317	2.502200
501.251667	2.563100
499.072217	2.637200
497.509900	2.705400
501.009917	2.488100
501.057917	2.483000
509.714350	1.815900
505.820783	1.992700
496.110317	2.548100
497.556050	2.439900
498.581683	2.270500
504.787300	1.837800
502.881117	1.884800
500.358367	2.018000
495.803300	2.264100
500.184883	1.992700
489.928117	2.550500
490.882567	2.373200
486.007217	2.644400
485.179867	2.647700
491.302700	2.289300
485.987283	2.589400
487.726583	2.470900
484.117483	2.632000
488.862983	2.349400
486.119667	2.516600
480.136533	2.872600
482.084283	2.622100
481.013500	2.663400
483.411367	2.453600
484.927417	2.324300
472.882150	3.028800
480.852350	2.563800
487.251833	2.087500
479.853550	2.453100
485.663917	2.049800
481.835200	2.261100
476.014250	2.584800
476.511017	2.544800
471.415383	2.835100
467.323800	2.970900
476.515217	2.411000
476.466183	2.408200
470.249450	2.751600
470.123017	2.626700
463.330617	3.005900
459.580283	3.208000
469.975400	2.577300
474.140950	2.342100
467.548467	2.720300
473.782767	2.211800
472.157983	2.283400
470.432917	2.323100
466.407833	2.558500
474.983000	2.032500
474.085150	2.082000
462.972950	2.613600
463.264883	2.561800
469.254433	2.163400
465.554150	2.337600
460.171267	2.631200
463.512683	2.437300
465.475250	2.279700
463.197183	2.350000
462.589000	2.372700
459.263367	2.563100
469.021833	1.893700
460.564200	2.283000
459.998900	2.290200
457.500250	2.377800
457.628733	2.362000
457.560817	2.337500
460.091167	2.185700
453.500867	2.507900
457.417817	2.256800
457.837667	2.150300
457.892817	2.132300
457.619817	2.120900
451.268217	2.477300
449.906367	2.403800
446.905417	2.584400
454.859300	2.099100
444.005550	2.709300
449.664117	2.235200
447.264317	2.329700
447.839933	2.262700
453.833517	1.891100
449.087983	2.142400
450.170067	2.081600
450.264100	2.008200
440.794617	2.524700
440.826883	2.500900
440.987400	2.471700
447.996100	2.040600
448.599300	1.991400
445.592000	2.118900
432.363083	2.764600
440.087483	2.274700
434.157583	2.635000
435.820150	2.531700
437.825150	2.253000
435.993767	2.351000
432.399483	2.489800
440.059267	2.007200
439.496433	2.020900
445.804683	1.617400
433.166983	2.215000
437.971283	1.899100
422.290617	2.822300
430.605267	2.304200
432.115200	2.091300
429.950367	2.146700
434.599517	1.838900
430.381100	2.103300
427.103633	2.288200
427.695667	2.243300
427.818717	2.127500
429.543400	1.922700
433.355050	1.623600
432.401167	1.625600
419.998617	2.347100
419.295500	2.401200
423.232933	2.120200
412.191067	2.659700
414.536083	2.520400
420.435833	2.108800
425.750000	1.782300
414.232883	2.448400
419.393950	2.154300
418.043917	2.210900
418.021433	2.208100
411.996500	2.584800
417.576150	2.240400
416.762967	2.210600
410.246683	2.569000
413.964567	2.292800
413.786967	2.301800
405.838650	2.747400
410.480883	2.477500
406.770950	2.622300
403.284833	2.772100
404.095400	2.700600
409.824417	2.321600
415.130067	1.991300
409.615417	2.279600
405.431167	2.480600
405.054600	2.368200
407.171267	2.222900
410.987650	1.982400
410.704883	1.966600
406.521567	2.124500
409.618767	1.923500
413.081800	1.660200
408.310717	1.895600
400.669317	2.335400
398.442183	2.447200
401.063733	2.232700
397.704850	2.408400
398.927583	2.296300
394.335583	2.528500
402.608783	2.027500
408.811367	1.628000
408.082633	1.462300
399.018017	1.973600
392.041600	2.369700
390.220600	2.476500
395.172500	2.091300
394.802517	2.030000
392.880500	2.065500
395.928900	1.863600
395.712700	1.862700
394.912150	1.885800
391.439283	2.008600
388.388983	2.066800
389.758983	1.945300
383.862083	2.234200
385.816083	2.102200
393.824133	1.606600
381.295783	2.335300
382.053000	2.235300
386.888600	1.902900
378.779867	2.381300
381.091633	2.255800
380.266733	2.228500
382.702067	2.062700
384.671817	1.918700
385.102917	1.866200
383.405383	1.937500
375.435650	2.401200
371.792217	2.479100
383.029467	1.784300
377.254550	2.107500
379.293417	1.964600
375.734083	2.010400
372.389783	2.192800
373.572983	2.054200
374.409667	1.984700
378.276083	1.739500
384.781733	1.310200
378.062233	1.663000
367.615933	2.275300
371.479667	2.022800
378.228950	1.496400
374.133283	1.705600
365.042983	2.239000
366.368883	2.152300
368.421750	1.967400
371.091817	1.756400
370.935950	1.683900
369.351950	1.784700
367.401783	1.864900
366.717800	1.874400
362.346767	1.997300
360.759467	2.048300
367.530717	1.589000
370.143217	1.403900
363.922333	1.758700
369.019767	1.460600
358.409550	1.913400
362.415050	1.640700
359.337850	1.792800
356.434883	1.960600
354.124967	2.050700
356.403683	1.789600
350.744700	2.108400
348.815300	2.163900
349.981383	2.087200
343.314033	2.470000
348.064750	2.167800
344.235400	2.274600
359.266283	1.380700
341.521850	2.423100
345.530850	2.154300
352.297017	1.617500
357.647217	1.260800
344.670783	1.971100
345.551900	1.908900
349.183467	1.692500
343.075550	2.049000
339.865367	2.095400
340.504400	2.003700
342.426333	1.840000
347.108750	1.547400
343.584750	1.711200
343.918000	1.673100
336.090750	1.984200
334.604950	2.066100
341.674333	1.614400
337.722883	1.864900
336.334317	1.858100
332.631250	2.001900
327.173683	2.254300
330.185933	2.069500
338.355250	1.597500
335.919900	1.729800
331.222183	1.969600
331.182667	1.845200
343.089750	1.142400
328.128233	2.050600
326.336550	2.118000
336.115367	1.418600
331.784083	1.635400
319.986583	2.306800
321.973100	2.175300
326.513450	1.904700
329.388917	1.763600
327.599567	1.720100
321.588817	2.018600
325.230800	1.769700
326.031850	1.742700
335.304217	1.187600
334.285183	1.213000
324.012983	1.696600
327.838550	1.452900
330.927967	1.268300
325.302300	1.552200
321.592450	1.712700
319.848533	1.774300
318.654217	1.825100
326.029533	1.332400
321.972167	1.538600
317.557600	1.747800
312.072200	2.047800
311.194167	2.081300
321.957350	1.416000
327.321083	0.912700
320.379067	1.303700
310.092450	1.902300
316.069367	1.532300
313.265233	1.642900
310.678700	1.774800
313.108683	1.621900
310.233317	1.783100
295.519417	2.586500
302.934000	2.153400
299.624283	2.301100
298.924200	2.319900
298.096400	2.280600
300.927983	2.122900
309.829867	1.546700
308.415517	1.615100
305.765600	1.711500
311.677583	1.239100
306.574650	1.514400
306.684733	1.476100
301.395750	1.758900
299.100750	1.750800
303.936133	1.407100
299.425817	1.610000
297.380433	1.716400
294.456533	1.878400
295.346067	1.783100
290.915067	1.912100
299.928283	1.355200
297.342650	1.440600
283.844483	2.230900
292.056050	1.751400
290.462400	1.837200
286.505467	1.936100
292.948717	1.512800
289.972767	1.682600
293.172417	1.489700
284.748350	1.878900
286.941533	1.656400
294.326683	1.175800
285.984933	1.649200
291.482133	1.309300
285.405750	1.647900
288.539150	1.416000
279.503900	1.838400
282.915100	1.606800
286.774650	1.330500
279.977067	1.723700
279.659850	1.761300
285.439050	1.407900
286.608383	1.267600
287.313417	1.206200
276.227467	1.841000
277.089500	1.762800
269.382833	2.210500
275.675350	1.831500
269.173467	2.074700
275.260467	1.701200
270.210800	1.964100
277.949883	1.491400
267.985900	1.956900
270.142283	1.789900
276.253767	1.328600
278.923500	1.171200
270.756783	1.614400
269.850083	1.700800
270.463883	1.514800
265.373733	1.762600
270.405017	1.414400
272.572283	1.225000
263.109067	1.747100
263.874650	1.701000
267.400317	1.460600
255.065733	2.052400
258.072133	1.850500
257.813550	1.874100
261.608567	1.642400
268.789383	1.157500
262.739583	1.474600
256.219883	1.799800
258.389633	1.666900
262.793333	1.373200
255.443933	1.793500
257.380667	1.562000
249.202117	2.010200
247.135233	2.062000
250.908100	1.822500
248.314033	1.969900
253.007167	1.682600
249.542400	1.691400
249.880500	1.674900
243.855400	2.047200
252.741200	1.501200
247.648517	1.678100
250.535350	1.450800
256.879783	1.058500
253.252333	1.250800
252.424850	1.269000
242.643950	1.836000
243.905850	1.729800
252.123050	1.186800
242.178283	1.755400
250.617583	1.231600
245.635483	1.512400
250.052283	1.096900
245.870267	1.293500
240.685200	1.537500
238.378100	1.626300
237.458033	1.708900
241.408917	1.458500
231.646200	1.905300
227.425433	2.126500
237.021617	1.551500
239.044217	1.402400
236.710617	1.438700
232.992583	1.637200
233.272417	1.557800
226.254700	1.931400
220.682383	2.221000
227.718383	1.785400
232.517567	1.477400
234.421400	1.354800
235.945783	1.079500
235.059167	1.130600
227.948167	1.529900
224.180150	1.740900
219.445017	1.961600
224.336600	1.569300
224.256567	1.578500
221.427767	1.728200
227.155833	1.324000
219.252050	1.680000
219.861867	1.654700
217.332833	1.730500
221.677983	1.470400
213.307100	1.894200
212.847150	1.929900
213.821317	1.871000
221.135000	1.412100
215.875517	1.593500
211.467567	1.837700
222.269767	1.193300
215.277883	1.603300
214.107867	1.627700
211.267667	1.757600
217.222267	1.339100
217.986233	1.306300
212.290900	1.618800
212.142317	1.607900
211.028917	1.632800
216.460783	1.253500
212.822550	1.443600
209.102400	1.659000
211.290783	1.465300
213.539567	1.215200
212.446600	1.244100
215.187583	1.016500
210.091100	1.275300
204.092900	1.627800
210.451550	1.235100
203.545400	1.503900
205.297117	1.357400
204.312233	1.341700
194.683967	1.887200
211.272467	0.883100
205.701883	1.200400
203.349517	1.206200
200.296683	1.323400
196.497083	1.506100
198.807800	1.359600
202.316667	1.129700
200.502983	1.213000
201.478533	1.027000
189.951950	1.673700
205.379733	0.712300
198.766600	1.087800
190.100133	1.547800
194.736267	1.144400
185.578200	1.664700
186.065400	1.584600
185.350750	1.639200
191.399217	1.276700
196.481850	0.964800
196.774233	0.820900
195.376383	0.886600
186.532083	1.348000
178.720500	1.803300
192.214900	0.986400
181.688883	1.590700
191.710333	0.853300
191.822250	0.775200
178.550950	1.517400
180.046050	1.395300
176.189450	1.625700
175.779767	1.652000
179.675783	1.316500
177.627017	1.361000
175.623400	1.425600
175.884933	1.416400
184.754867	0.847700
173.476567	1.400900
173.763467	1.345700
174.349350	1.254000
177.401467	1.059800
180.168833	0.899200
166.674183	1.675900
170.420250	1.382100
166.371700	1.609200
176.398250	1.011300
174.930950	1.091700
173.788100	1.077600
171.994983	1.159300
162.398967	1.685300
169.666117	1.232600
164.443967	1.505600
163.905950	1.519200
160.537167	1.669700
164.749217	1.422500
160.416233	1.606600
162.748233	1.431700
162.524883	1.429300
174.614167	0.685400
166.121633	1.037500
166.321167	1.003100
167.249567	0.922100
159.548967	1.355300
155.955550	1.497300
167.801283	0.694000
161.475317	1.010600
159.218367	1.091300
153.136367	1.419200
147.080583	1.771000
145.114183	1.898500
152.605383	1.406500
155.239450	1.204500
159.285017	0.903200
156.873450	0.994800
149.927533	1.381600
148.429650	1.461600
151.620883	1.138900
145.996933	1.427500
143.989400	1.476000
152.720850	0.948000
149.472400	1.129500
152.649767	0.922100
155.050317	0.639800
145.869883	1.124200
151.392917	0.770000
142.953517	1.268900
141.453950	1.327200
132.809250	1.821000
140.916883	1.314700
137.499750	1.499100
138.554067	1.429400
141.964017	1.209500
139.699667	1.307000
132.345717	1.616300
144.552750	0.854700
137.382767	1.189100
140.465550	0.982800
133.765600	1.347000
135.652333	1.243600
138.681350	0.889500
125.511783	1.635400
134.085733	1.085800
126.547650	1.518900
136.513467	0.903800
127.192367	1.450100
129.797883	1.147600
135.194467	0.801800
123.878600	1.457100
127.081583	1.252900
120.770800	1.586700
120.726583	1.548400
121.495900	1.485900
122.640550	1.354200
117.437800	1.663200
128.889400	0.964800
126.375200	1.092600
123.571283	1.138000
124.134883	1.071100
120.266150	1.222800
117.117450	1.425600
122.915150	1.059600
123.363583	1.017400
117.567950	1.190400
117.498467	1.194800
117.696400	1.188900
120.419500	1.000800
109.588750	1.510200
110.222117	1.448000
118.390717	0.962000
111.096500	1.379100
115.478317	1.105700
112.813917	1.254500
113.336717	1.174700
110.061400	1.336500
114.990433	1.027000
111.496867	1.197200
116.868617	0.857900
110.447717	1.226300
115.018167	0.882800
111.956683	0.929800
115.128333	0.721300
102.585600	1.448100
108.827933	1.052800
101.479217	1.349600
103.730450	1.190400
102.414183	1.235800
96.191800	1.595400
108.655933	0.853300
98.869100	1.414500
94.441200	1.531200
100.664350	1.138500
97.203567	1.263800
94.678250	1.403400
97.549850	1.229400
95.182500	1.345200
93.849067	1.256000
93.338950	1.262700
101.838400	0.767400
92.053700	1.326900
93.236100	1.162500
85.459433	1.548400
91.865250	1.152900
88.112800	1.333800
97.674317	0.743000
97.600033	0.716200
88.988917	1.156100
92.157533	0.864400
84.953317	1.274300
88.268150	1.023000
87.749083	1.031500
88.206950	1.021800
85.320783	1.160800
81.511317	1.278800
82.653217	1.208300
79.648483	1.353400
81.457800	1.230300
80.717967	1.137800
86.939317	0.734000
87.547417	0.662900
81.123600	1.026300
86.439783	0.691300
88.064000	0.577200
69.472550	1.579500
76.433867	1.157900
88.579933	0.433300
90.006267	0.320900
80.960617	0.809300
78.141817	0.935900
81.718150	0.675600
75.022283	1.036900
72.894517	1.137200
73.562783	1.072300
73.584267	0.943100
74.948067	0.791300
68.280733	1.147600
73.141483	0.805300
65.957267	1.224800
68.777133	1.041700
71.799633	0.801100
69.023583	0.861100
71.966617	0.649400
57.269200	1.495200
63.023217	1.133300
67.222017	0.866000
65.134117	0.964100
46.944167	1.993100
52.644083	1.632400
59.255083	1.250200
60.866733	1.141600
63.689450	0.830700
59.997400	1.011300
59.156783	1.014400
55.630950	1.239600
46.315850	1.648500
49.046317	1.444100
50.383517	1.328600
59.496267	0.751400
63.722900	0.471000
51.157233	1.143700
60.892367	0.557600
55.215167	0.875300
58.274350	0.617100
49.684250	0.999900
43.820633	1.341100
47.108233	1.147300
52.294417	0.799700
51.676000	0.821100
51.650850	0.781800
49.598233	0.825100
49.262283	0.834700
45.536400	1.015500
46.196567	0.962600
49.668633	0.610900
37.245400	1.328400
44.630450	0.798300
42.193200	0.947700
41.803983	0.973900
41.997833	0.945400
36.974217	1.063700
34.761167	1.186100
48.461650	0.360900
42.997300	0.666000
40.071467	0.805100
41.451300	0.657900
45.677850	0.348000
33.867733	0.993400
35.449983	0.862000
36.607067	0.774500
37.560633	0.677800
32.238967	0.866600
27.859800	1.100400
29.070683	0.951700
27.198667	1.078100
33.609683	0.685000
26.408067	1.119200
20.300717	1.348700
19.706983	1.347400
20.960133	1.223200
19.271167	1.322600
24.891200	0.979200
30.540450	0.641700
22.252100	0.980400
22.044567	0.976100
24.773717	0.799700
30.949283	0.425800
23.571167	0.753200
22.280017	0.739100
30.881783	0.124900
18.377817	0.873500
16.899367	0.943100
18.469833	0.844600
15.925867	0.947900
15.862817	0.910400
11.723300	1.134900
13.943967	0.971900
9.203550	1.246500
16.874433	0.772300
14.814267	0.860900
15.266317	0.646700
5.847417	1.209800
15.881233	0.611200
12.850833	0.769300
10.775333	0.754900
3.157517	1.187900
12.256767	0.575900
6.465883	0.918400
9.296100	0.725400
-0.784050	1.353900
5.174383	0.862300
10.407800	0.505800
-3.568683	1.236800
8.521617	0.503600
4.464200	0.742500
7.033450	0.562800
10.416750	0.198300
-1.683783	0.907400
4.599750	0.544500
0.884317	0.755600
-1.056550	0.765600
-5.755083	0.975200
-6.624917	0.998500
-8.082300	1.045200
1.831933	0.433900
-5.552517	0.841900
-6.492883	0.867200
-2.607533	0.500000
-8.687200	0.843000
-3.094617	0.454300
-1.913583	0.377900
-4.675733	0.510500
-16.296617	1.185100
-14.883117	0.966700
-22.053633	1.399400
-11.828650	0.817200
-24.416717	1.544800
-18.259500	1.165500
-12.157800	0.762300
-17.032767	1.033300
-15.440900	0.923400
-15.860500	0.937800
-21.473400	1.269000
-19.765017	0.995500
-16.534733	0.784400
-15.506017	0.697000
-13.633667	0.573100
-10.007033	0.266900
-21.141450	0.785700
-22.080850	0.812400
-21.097000	0.725400
-15.804817	0.378400
-16.771850	0.358800
-24.899150	0.820500
-28.395100	1.044900
-23.583133	0.750200
-21.812233	0.575900
-20.282050	0.466500
-13.374683	0.021500
-23.528283	0.613100
-19.505350	0.290400
-16.917433	0.105200
-32.279183	0.959900
-30.321783	0.840800
-19.400117	0.137500
-30.245567	0.751600
-32.014900	0.751800
-35.070750	0.859800
-36.845883	0.915800
-36.545500	0.836400
-35.799433	0.782600
-31.987033	0.535700
-30.382933	0.425000
-44.322750	1.181400
-46.293783	1.311500
-43.744800	1.144800
-30.546650	0.329400
-40.630117	0.788500
-30.763033	0.167600
-42.907350	0.831000
-43.022883	0.815900
-46.601800	0.999600
-40.579983	0.646100
-33.135850	0.171000
-38.124467	0.430600
-49.809000	1.104900
-45.003717	0.817900
-42.321200	0.513000
-44.705617	0.570400
-62.285000	1.580400
-54.633517	1.136800
-47.093200	0.707100
-47.808333	0.725900
-52.967300	0.955500
-57.482500	1.141800
-52.061733	0.770000
-51.892683	0.708800
-54.239017	0.833800
-43.239433	0.151400
-49.744983	0.455300
-53.569733	0.562400
-59.500383	0.890600
-66.627833	1.262300
-63.029617	1.048000
-59.606100	0.831000
-59.968350	0.863400
-63.210600	0.906000
-56.439217	0.499000
-65.931533	1.063700
-65.925350	1.040100
-66.781400	0.948900
-63.891133	0.749000
-62.459933	0.588200
-63.837867	0.648700
-55.034467	0.112300
-64.076133	0.621200
-60.643400	0.354300
-70.602317	0.916600
-73.654917	1.087300
-69.775667	0.843400
-70.222983	0.842600
-65.214667	0.535900
-68.623050	0.673200
-65.923483	0.412700
-67.512100	0.466500
-67.539633	0.450800
-73.194583	0.746000
-69.468533	0.490100
-74.950233	0.769100
-70.582550	0.452700
-73.254583	0.579200
-72.521583	0.512000
-67.352450	0.162300
-75.109033	0.556100
-72.223583	0.361400
-71.686350	0.229800
-75.174700	0.403500
-73.591667	0.290500
-82.762283	0.820700
-78.373717	0.374500
-91.638300	1.149600
-76.992583	0.282200
-83.563500	0.694800
-77.900283	0.211100
-81.650000	0.378600
-81.755317	0.306700
-88.199950	0.687000
-87.466850	0.673800
-83.541000	0.357600
-83.538383	0.296900
-84.698933	0.263600
-91.441150	0.615300
-89.469883	0.452000
-92.844000	0.639600
-94.542783	0.738200
-95.623883	0.744500
-97.512767	0.732400
-100.019000	0.868200
-95.253967	0.566500
-102.405450	0.991500
-99.226467	0.660400
-95.024933	0.375200
-110.118617	1.250800
-105.275883	0.952100
-98.620833	0.530000
-103.385183	0.810200
-103.555917	0.782500
-92.855033	0.101300
-101.932117	0.560200
-101.763683	0.555500
-98.446050	0.359400
-108.198650	0.899400
-103.650850	0.557100
-105.464767	0.577600
-102.380950	0.369600
-104.742833	0.508700
-104.844783	0.425900
-103.199417	0.269800
-118.456083	1.135100
-104.788183	0.245900
-113.426067	0.722800
-114.275233	0.779300
-111.023683	0.550100
-110.156983	0.373100
-112.117233	0.454100
-122.366350	1.013400
-118.483267	0.775900
-130.464917	1.513000
-120.223883	0.888200
-117.824283	0.638900
-116.174883	0.506000
-116.951050	0.553200
-123.475100	0.919500
-117.997933	0.506300
-125.702950	0.951900
-114.420850	0.177300
-119.604800	0.474900
-124.721067	0.733300
-124.491383	0.737600
-122.454667	0.535600
-124.965350	0.611700
-133.949900	1.122300
-131.356317	0.983800
-124.554217	0.591700
-123.532800	0.502500
-122.372750	0.411900
-128.053583	0.616100
-127.142367	0.535300
-123.696000	0.309900
-131.345183	0.760400
-127.408717	0.436900
-132.128683	0.685700
-134.156517	0.712300
-138.014567	0.928600
-141.931367	1.168000
-139.450033	1.024400
-133.409867	0.617200
-135.145650	0.687600
-131.194617	0.429100
-130.861200	0.400200
-134.948033	0.598700
-130.652900	0.321600
-145.599617	1.056400
-142.508733	0.833300
