#Y dist(nm)	Y force(pN)
0.000000	0.360900
-2.008150	0.465000
-10.313567	0.928900
-5.179700	0.629100
-12.144550	0.863100
-12.231783	0.858500
-2.861600	0.289200
-5.337400	0.434700
-11.525117	0.641500
-18.850583	1.053500
-10.632967	0.579400
-16.838083	0.943100
-14.723050	0.762300
-17.260200	0.872100
-13.738800	0.657600
-22.214950	1.143000
-29.178517	1.544800
-13.021683	0.552200
-21.992700	1.068300
-27.053333	1.339400
-18.123383	0.760700
-17.893833	0.629000
-18.819967	0.663100
-21.137317	0.792100
-21.821950	0.814800
-16.384917	0.489700
-17.433867	0.505300
-18.470017	0.535000
-31.320500	1.293600
-33.091133	1.152200
-26.436767	0.746800
-21.956717	0.452500
-24.651450	0.587100
-24.656733	0.565400
-30.205917	0.905800
-24.938850	0.582900
-18.335250	0.162600
-20.423650	0.198300
-24.904633	0.467900
-25.205633	0.476300
-27.895317	0.617200
-34.329233	0.872300
-36.450417	0.989200
-33.027200	0.759900
-32.109233	0.671000
-31.590533	0.588800
-39.974467	0.995500
-31.634717	0.478000
-34.594450	0.640200
-29.696100	0.339900
-37.471950	0.786300
-30.718600	0.375900
-39.318967	0.865300
-38.822983	0.820700
-36.795150	0.697500
-34.655067	0.574300
-42.530333	0.800300
-39.320050	0.534900
-46.158050	0.916200
-46.370683	0.928700
-35.457783	0.284300
-41.620417	0.630700
-41.384933	0.607400
-52.535933	1.251200
-47.740067	0.712300
-51.016600	0.907200
-43.417033	0.455000
-51.655517	0.935500
-38.220683	0.009500
-52.363383	0.822500
-49.780933	0.652400
-56.230983	1.034000
-65.391867	1.502800
-58.122383	0.982100
-57.696233	0.957800
-56.776050	0.926700
-57.830917	0.964900
-59.854450	1.075800
-59.101750	1.035300
-57.340400	0.910800
-50.940050	0.525900
-50.288000	0.461100
-52.274683	0.577400
-61.193700	0.849300
-56.359600	0.523500
-54.171167	0.377800
-57.526467	0.566200
-62.325633	0.828800
-62.677500	0.846300
-55.328033	0.403400
-56.300167	0.441100
-71.289100	1.152900
-65.802417	0.788200
-63.246200	0.629100
-67.836750	0.903900
-78.160117	1.327000
-75.460283	1.181600
-69.362567	0.799000
-65.356317	0.574600
-74.389300	1.019100
-73.704567	0.920500
-76.429017	1.065700
-80.743550	1.326000
-74.253583	0.953600
-71.678167	0.804400
-71.342833	0.771800
-74.408717	0.931300
-70.773967	0.707500
-75.299417	0.957400
-75.420717	0.863200
-78.287517	0.813700
-77.286817	0.751300
-74.997767	0.585700
-76.517600	0.656400
-74.249433	0.517100
-72.219533	0.373100
-70.796733	0.219800
-81.502883	0.823700
-76.818517	0.521200
-81.311333	0.794000
-71.482467	0.182200
-79.409117	0.602500
-77.361867	0.295000
-75.498967	0.178900
-78.513967	0.323500
-87.307750	0.840300
-84.373933	0.617000
-84.072100	0.595800
-81.106183	0.394400
-77.419783	0.154400
-78.475800	0.187200
-84.565817	0.542500
-87.770817	0.727600
-88.224050	0.745500
-95.663867	1.187200
-81.886267	0.356200
-83.782317	0.299500
-86.252483	0.269000
-91.338617	0.551500
-95.779450	0.802200
-88.195767	0.329800
-93.987367	0.690100
-95.725517	0.774400
-91.268017	0.366100
-87.642767	0.121600
-92.607167	0.387100
-95.221117	0.549700
-86.019683	-0.028300
-102.632433	0.962300
-95.347600	0.370800
-95.219733	0.316100
-102.226517	0.742000
-104.184083	0.880100
-106.564900	0.894600
-101.467917	0.551200
-108.587000	0.968700
-102.806950	0.648000
-101.881167	0.591700
-103.136100	0.643500
-99.940717	0.429100
-103.049100	0.636300
-105.500367	0.786400
-94.124783	0.088700
-103.150350	0.481500
-110.995783	0.778400
-106.593017	0.498100
-103.654133	0.294500
-107.604883	0.540500
-107.435217	0.517900
-107.755100	0.526500
-104.385150	0.253200
-115.713950	0.908400
-110.407817	0.530800
-110.232283	0.498500
-102.893033	0.025700
-104.503317	0.108700
-110.504283	0.377900
-111.983267	0.439600
-113.630917	0.510400
-110.613383	0.324800
-110.256617	0.267100
-113.467433	0.428300
-116.175850	0.466500
-120.042300	0.671100
-121.366700	0.742500
-117.328300	0.504000
-115.305333	0.260300
-124.852533	0.791000
-109.236317	-0.242300
-110.961017	-0.112700
-109.968317	-0.231800
-125.769267	0.710500
-123.894083	0.614900
-117.936400	0.210000
-112.811550	-0.105900
-116.260650	0.049500
-124.027433	0.499700
-123.549500	0.460500
-126.001400	0.574200
-130.232917	0.761800
-129.092667	0.701800
-125.993850	0.504600
-124.242167	0.357700
-126.472233	0.381200
-134.492200	0.825900
-129.570850	0.483900
-137.663100	0.952200
-131.607017	0.560800
-138.855233	0.977000
-131.923117	0.451300
-129.816967	0.301000
-137.397217	0.678700
-140.605150	0.887100
-136.981433	0.646100
-136.093217	0.546400
-137.235883	0.526100
-133.639667	0.333400
-127.422767	-0.037700
-130.366117	0.079000
-136.198167	0.384100
-136.273750	0.371400
-134.344100	0.240300
-134.413050	0.189600
-137.220017	0.344500
-129.010700	-0.148500
-134.060317	0.070900
-141.755383	0.459200
-139.443567	0.293500
-137.883917	0.169600
-138.751500	0.198300
-137.898117	0.114400
-139.604033	0.172100
-145.115617	0.399400
-139.721383	0.034700
-143.396100	0.240300
-138.749133	-0.064000
-149.938117	0.478900
-149.540283	0.420800
-163.265883	1.217000
-146.784567	0.252100
-154.383167	0.701800
-152.037183	0.551300
-154.514000	0.625800
-150.344750	0.365400
-153.695850	0.546000
-149.978600	0.303900
-155.567767	0.581500
-152.747633	0.380300
-156.912883	0.624200
-155.519333	0.518000
-143.858133	-0.214300
-153.834267	0.355600
-154.276733	0.295100
-147.592700	-0.182400
-149.201850	-0.123900
-150.783000	-0.099900
-153.557000	0.031200
-151.316183	-0.109900
-154.990483	0.069200
-160.771550	0.311100
-157.432583	0.115100
-170.581117	0.832900
-158.425333	0.080300
-163.236900	0.341700
-159.405533	0.144200
-151.497000	-0.410700
-166.613683	0.487100
-161.693983	0.130100
-158.305233	-0.084400
-158.989833	-0.064000
-165.035133	0.272300
-163.710267	0.114400
-161.618600	-0.071100
-160.478200	-0.137400
-159.427417	-0.222500
-161.948017	-0.146000
-167.208700	0.092100
-165.319167	-0.052700
-163.356900	-0.165900
-159.774667	-0.387200
-168.359433	0.118100
-169.308433	0.146600
-176.442817	0.570700
-169.027417	0.143200
-170.235333	0.287900
-173.569850	0.471000
-165.250850	-0.038700
-163.984483	-0.102400
-168.329750	0.236400
-169.110283	0.282200
-171.829617	0.468700
-172.373383	0.505100
-178.275000	0.976200
-170.177750	0.524100
-168.902917	0.433600
-171.526467	0.604600
-170.833017	0.579400
-164.240333	0.175700
-166.744167	0.420700
-162.516783	0.192800
-167.366300	0.534000
-167.661900	0.544500
-164.816183	0.367400
-160.820150	0.131400
-166.211167	0.470200
-164.776100	0.435900
-164.421467	0.411400
-156.312200	-0.072300
-156.276567	-0.045800
-148.701917	-0.408500
-160.024917	0.280300
-158.405533	0.180500
-158.346567	0.205300
-160.054950	0.298500
-152.046933	-0.219700
-154.272717	0.027400
-162.908083	0.563000
-151.896950	-0.066600
-158.241233	0.300200
-154.683800	0.105900
-161.623833	0.508100
-161.304467	0.610000
-157.078417	0.355000
-158.019317	0.385000
-157.113033	0.347300
-153.071533	0.137000
-146.107800	-0.261300
-152.600967	0.153700
-156.643433	0.412700
-155.422133	0.362600
-152.707250	0.187800
-165.351250	0.986100
-163.411600	0.969300
-156.934383	0.596900
-149.024817	0.172900
-156.709000	0.629100
-157.484367	0.680200
-149.819317	0.216100
-152.985833	0.466400
-148.373967	0.188500
-150.620150	0.304200
-153.247217	0.466300
-145.596917	0.095200
-149.229733	0.294200
-151.563433	0.485000
-139.836800	-0.189000
-146.684100	0.178800
-151.527633	0.478700
-150.796750	0.544500
-145.838633	0.288500
-151.985867	0.670300
-139.221783	-0.078100
-139.639950	-0.048600
-148.243533	0.465800
-142.550183	0.292700
-145.053600	0.404400
-145.161083	0.417800
-145.713917	0.458200
-146.870000	0.534000
-143.694483	0.398300
-147.123450	0.655800
-146.371467	0.627700
-137.822783	0.134000
-147.061417	0.673000
-141.115867	0.333100
-150.918367	1.015900
-139.407400	0.347400
-139.599533	0.388100
-141.607800	0.523500
-135.661917	0.158200
-144.437100	0.669600
-147.251683	0.993800
-144.342833	0.831200
-134.883150	0.247800
-125.972150	-0.275100
-131.937017	0.146800
-139.016467	0.605800
-139.727050	0.665100
-136.198767	0.467200
-135.944767	0.442600
-135.921233	0.476900
-144.778250	1.030800
-134.977767	0.463300
-139.391267	0.722800
-129.476950	0.141900
-137.919800	0.719100
-135.321017	0.592000
-124.163550	-0.065400
-133.427750	0.537000
-136.754133	0.732500
-134.185417	0.574300
-131.685633	0.425300
-123.833933	0.065900
-125.418883	0.178100
-126.263950	0.267900
-125.257200	0.208800
-123.241933	0.047600
-120.095617	-0.140000
-127.225450	0.382200
-124.343883	0.241700
-129.192800	0.573300
-128.193167	0.520300
-135.159367	0.944800
-127.338550	0.470400
-128.450783	0.580400
-123.586933	0.303200
-130.393467	0.708100
-124.129550	0.347400
-122.966983	0.305300
-129.546933	0.703700
-126.989700	0.614700
-121.772917	0.374500
-129.079933	0.813500
-128.058450	0.766200
-119.163450	0.260400
-125.822317	0.743800
-124.672550	0.695400
-115.397917	0.186100
-114.871317	0.148600
-121.339117	0.530500
-122.107100	0.573300
-117.694683	0.413300
-128.899000	1.089900
-110.731667	0.072400
-115.926067	0.393700
-118.521850	0.519600
-118.804600	0.529800
-106.803117	-0.086300
-113.433733	0.345200
-115.234383	0.459800
-115.710650	0.457800
-116.189000	0.491100
-118.796433	0.659300
-117.178017	0.570700
-117.478167	0.580000
-121.288267	0.885400
-111.201967	0.458200
-109.205283	0.341900
-112.957900	0.590700
-115.148650	0.729300
-105.428750	0.167400
-113.511633	0.638900
-113.840533	0.663800
-113.922500	0.672000
-117.196150	0.876300
-116.139883	0.806000
-114.230617	0.706000
-110.209233	0.461300
-112.322350	0.756600
-108.850350	0.563400
-107.632183	0.527000
-105.237167	0.365500
-111.574383	0.750800
-110.747567	0.701800
-109.092283	0.729800
-104.441317	0.475600
-94.762283	-0.032500
-104.661883	0.527000
-106.146500	0.597600
-100.327467	0.245200
-107.655233	0.741200
-97.705517	0.216700
-104.129583	0.599900
-115.041300	1.255800
-105.617400	0.699000
-98.614083	0.282200
-93.122850	-0.064800
-104.032800	0.563100
-99.856217	0.310900
-106.542850	0.698700
-96.187483	0.079400
-102.973767	0.445300
-108.277117	0.777700
-103.417933	0.500600
-107.821200	0.737700
-96.652183	0.462200
-89.846267	0.098200
-94.963850	0.456600
-99.374500	0.703200
-92.093783	0.283700
-94.422850	0.421200
-99.936533	0.846800
-93.539467	0.511600
-104.855083	1.196900
-101.342367	0.998200
-93.038233	0.486800
-93.128317	0.497800
-99.849267	0.961600
-92.970867	0.601900
-92.020083	0.568700
-92.201650	0.590400
-91.306467	0.549700
-88.137750	0.348900
-91.409950	0.574500
-84.293983	0.232400
-90.387217	0.597700
-94.490567	0.862000
-95.555683	0.930800
-90.287417	0.733300
-88.713900	0.655500
-83.580917	0.366100
-90.595783	0.815000
-89.162017	0.707800
-85.137583	0.451400
-91.009300	0.920100
-89.520817	0.863500
-81.006033	0.434300
-90.868400	0.958500
-76.932667	0.135400
-80.415350	0.318600
-83.589967	0.618700
-77.625150	0.276000
-76.042850	0.229800
-84.258533	0.693200
-82.899900	0.608700
-87.545200	0.898500
-90.504233	1.098500
-80.481250	0.556500
-83.660983	0.738500
-86.038617	0.887800
-88.063500	1.062000
-89.191583	1.212500
-72.529017	0.231700
-86.981983	1.137200
-74.807983	0.415100
-82.541867	0.868300
-85.892267	1.081000
-83.379467	1.034200
-84.819800	1.172400
-73.214500	0.561000
-73.625933	0.582500
-67.690667	0.245500
-80.506100	0.996900
-66.134850	0.240300
-72.639050	0.658800
-63.654300	0.148500
-70.675083	0.532700
-67.344967	0.372400
-73.945350	0.829800
-77.738600	1.090800
-74.857733	0.934400
-76.076683	1.021100
-74.933017	0.970000
-70.146133	0.728000
-75.698817	1.147600
-72.629100	0.986700
-67.963283	0.743000
-67.051233	0.688100
-67.798000	0.718500
-68.730467	0.784900
-64.758733	0.626600
-57.937250	0.219300
-61.373267	0.416500
-64.413283	0.574400
-60.131483	0.413000
-59.899483	0.409400
-66.436850	0.857400
-64.624917	0.744400
-69.028217	0.992500
-67.046233	0.889400
-74.745683	1.391900
-60.768667	0.598300
-72.806533	1.388900
-64.566900	0.890100
-57.204833	0.450800
-63.509050	0.824400
-45.107783	-0.142600
-51.913467	0.234400
-55.969050	0.462000
-59.347733	0.673100
-62.396467	0.884200
-45.508850	-0.028200
-54.496450	0.513000
-49.123467	0.210100
-46.917617	0.070900
-57.177300	0.694500
-53.817233	0.491300
-55.857750	0.654000
-54.115867	0.551500
-55.453917	0.652000
-59.116383	0.883400
-62.542917	1.103500
-52.705150	0.521400
-50.797200	0.534000
-53.607600	0.708600
-56.544083	0.886400
-57.295633	0.926300
-57.183333	1.021400
-52.473150	0.772800
-65.853717	1.576000
-54.929067	0.973900
-51.040017	0.754300
-49.443200	0.654300
-50.049200	0.755100
-48.020983	0.714200
-49.324600	0.822000
-42.769700	0.445200
-46.820600	0.669600
-46.744267	0.680200
-44.709250	0.554100
-48.666867	0.904900
-51.022933	1.073000
-47.227050	0.817200
-49.664683	0.960800
-48.259250	0.940500
-42.275600	0.629100
-50.535017	1.122700
-45.827817	0.843100
-43.342300	0.704400
-39.242967	0.444100
-42.622867	0.735400
-52.854933	1.399400
-61.863417	1.981600
-46.881183	1.113800
-45.356133	1.002500
-46.077650	1.057200
-44.095083	1.021400
-44.354650	1.107000
-39.115800	0.818700
-32.181517	0.401500
-45.196650	1.222800
-39.046750	0.924000
-46.103983	1.359500
-36.368283	0.790100
-39.272367	0.985000
-40.634250	1.110900
-40.234033	1.080200
-45.982967	1.536100
-35.776750	0.959700
-36.983833	1.076300
-33.764200	0.888900
-29.340733	0.629600
-35.788500	1.000800
-40.913900	1.428300
-27.308450	0.639600
-23.426017	0.417400
-32.678867	0.939100
-41.461583	1.573100
-36.522717	1.300600
-33.345783	1.194800
-41.914867	1.710700
-41.740483	1.699100
-35.556383	1.337000
-40.398067	1.757800
-26.178150	0.909000
-18.039467	0.376600
-27.360433	0.941900
-21.867950	0.641700
-21.964783	0.738500
-20.364783	0.638900
-22.314650	0.776100
-24.849450	0.939600
-29.534767	1.207600
-30.949300	1.307100
-23.214633	0.951200
-24.243750	1.027800
-18.307000	0.705300
-28.241017	1.292800
-24.067733	1.046900
-22.898283	0.955100
-17.903233	0.779600
-21.329033	1.018400
-14.016483	0.608900
-9.017400	0.289500
-14.364383	0.617900
-12.960083	0.509300
-12.654433	0.580400
-8.252817	0.332800
-4.637617	0.114400
-12.551483	0.610700
-7.532183	0.297200
-10.400733	0.459800
-17.629217	0.946600
-17.032683	0.995000
-17.709900	1.032300
-20.811900	1.219800
-14.404783	0.858200
-16.961033	1.033400
-14.848617	0.960100
-7.425633	0.558500
-6.675033	0.519500
-13.169617	0.908500
-9.683433	0.709100
-18.111617	1.328800
-12.538833	1.034300
-6.621433	0.732200
-5.557750	0.659100
-3.802317	0.540400
-8.582183	0.840200
-14.814717	1.324900
-9.503567	1.008400
-11.948200	1.157100
-10.282850	1.050600
-5.696533	0.820400
-10.464533	1.126100
-15.221833	1.434200
-15.016117	1.458100
-7.431817	1.018900
-7.357567	1.030300
0.688317	0.585500
-7.245000	1.152900
-2.489783	0.862700
-0.024050	0.722100
-6.495800	1.117200
-3.699233	0.983300
-1.322433	0.871100
-6.534850	1.217400
-2.217900	0.969300
-3.049917	1.018000
1.113467	0.788600
1.121667	0.907700
-2.324800	1.141500
3.112983	0.841300
6.808517	0.658400
-3.906233	1.300400
4.759350	0.806700
8.801083	0.539200
2.767383	0.925600
-3.191267	1.304200
4.105150	0.865500
6.429233	0.884500
-1.666533	1.441700
-1.978683	1.572500
5.578250	1.086300
2.899800	1.244700
6.694800	1.017900
-0.350133	1.470200
10.604700	0.837000
4.277817	1.239200
0.038450	1.537500
5.099783	1.267600
15.130550	0.662100
10.665667	0.955100
11.442867	1.013600
9.109833	1.159900
13.395200	0.949200
18.456483	0.631900
11.726817	1.029500
11.035167	1.054100
-3.086117	2.041000
11.722200	1.142400
3.083483	1.668400
6.668367	1.466900
3.511383	1.790200
10.876267	1.377500
19.975500	0.888000
13.226333	1.310200
18.727250	0.981600
12.224750	1.364700
21.152100	0.923700
22.964017	0.857900
18.814200	1.152900
20.683233	1.030900
27.364833	0.616300
25.277883	0.711700
19.418467	1.105700
14.439900	1.484100
14.072400	1.508700
17.973817	1.288400
23.598617	0.938600
28.220000	0.773400
15.421717	1.538000
19.490767	1.348700
25.693267	0.986900
20.767133	1.282300
31.276000	0.666600
31.803633	0.688900
24.558950	1.109400
25.245167	1.093400
26.079700	1.062000
16.267700	1.647300
21.388200	1.358100
26.277017	1.187900
28.867200	1.035000
20.104583	1.585600
28.668450	1.078800
31.150367	0.996500
23.391750	1.543800
23.025933	1.614400
32.867983	1.029100
38.051633	0.717100
29.322617	1.215200
30.631967	1.187600
29.408417	1.381400
28.781417	1.420400
36.489133	0.957100
33.165700	1.149600
34.411083	1.150900
29.031383	1.484500
31.828500	1.377900
31.591350	1.403700
29.348717	1.530500
40.109500	0.885000
35.116100	1.305300
35.127300	1.326600
37.649033	1.219300
37.909117	1.205300
36.866467	1.269800
29.929600	1.683000
35.100250	1.473900
40.297050	1.209000
31.119800	1.803300
35.577533	1.535500
36.625967	1.469000
32.008483	1.755400
44.525150	1.062300
40.705150	1.369500
35.484733	1.706200
32.090533	1.907500
41.990817	1.400900
44.998950	1.291200
43.947933	1.352200
48.192117	1.094000
51.456350	0.909900
41.843367	1.590800
47.917500	1.231200
46.218783	1.373200
50.050783	1.161100
44.979517	1.517900
56.652883	0.826900
52.209300	1.077600
55.273083	0.895900
49.926117	1.319000
45.081817	1.645100
49.450483	1.394200
52.330450	1.209000
59.522200	0.830700
56.734767	0.996200
58.710633	1.058500
59.039250	0.979500
65.132667	0.586400
57.615450	1.068300
54.190400	1.275000
58.059567	1.073600
68.936383	0.408100
54.235617	1.308800
61.462917	0.889100
59.772650	0.987000
54.072633	1.340800
52.907033	1.478800
57.371100	1.216500
56.717600	1.251000
53.662733	1.470700
56.479767	1.420700
59.537200	1.273500
65.011000	0.967200
72.766033	0.518200
71.724783	0.553600
67.156900	0.810000
63.885217	1.095800
58.424667	1.448000
72.679983	0.651100
59.513533	1.457800
56.393783	1.645900
61.954150	1.336800
61.309367	1.458800
62.770333	1.418800
68.072183	1.147600
66.192283	1.287400
64.765167	1.375100
71.995467	0.953600
59.933983	1.701400
61.953517	1.684100
64.213017	1.554800
67.299267	1.379900
68.014700	1.366500
65.563750	1.642800
66.345500	1.615200
72.797350	1.272900
75.578083	1.112500
76.761183	1.036300
66.220267	1.682600
69.872050	1.587300
73.166900	1.427100
75.770233	1.320700
76.043267	1.340300
75.266817	1.365500
73.300250	1.466400
69.520050	1.755000
76.067067	1.370600
73.046267	1.509500
74.821000	1.436100
71.481083	1.699900
75.231283	1.548400
71.122150	1.809900
81.901117	1.171100
84.124900	1.057800
78.717817	1.406300
80.360000	1.313700
88.912100	0.893100
88.258417	0.947300
83.582133	1.261300
84.909833	1.168600
77.909917	1.587500
75.388467	1.727900
85.194217	1.233800
83.581917	1.314200
89.178067	0.999500
91.642150	0.857700
85.682100	1.305000
85.270350	1.386000
92.356233	0.995500
92.257583	1.025200
90.002717	1.135400
84.032783	1.493800
84.036533	1.543900
85.968617	1.472000
87.666367	1.390700
87.925650	1.394700
87.863733	1.396300
79.266217	1.922600
86.674183	1.565200
82.535633	1.888600
92.805083	1.304200
87.271200	1.631700
91.379150	1.454100
91.729800	1.510200
95.282983	1.325200
93.567717	1.449200
102.737517	0.913100
94.801317	1.361600
87.317150	1.814700
90.365683	1.757800
96.345617	1.421900
90.822900	1.749900
92.223717	1.672100
99.728033	1.288600
95.211633	1.567600
89.054117	1.997300
93.065783	1.768300
102.320567	1.224800
100.939533	1.329100
97.750050	1.583700
90.962850	2.006700
104.283283	1.320700
96.203783	1.822300
97.610367	1.785800
100.728533	1.543000
103.589400	1.436100
105.685167	1.373900
103.508067	1.538900
100.368067	1.735400
101.597317	1.689500
102.807083	1.613200
93.733817	2.164700
104.024500	1.686000
108.959967	1.397000
103.619233	1.718500
104.168700	1.686000
105.282267	1.722800
108.150983	1.592800
104.914250	1.863600
111.234500	1.461900
116.723033	1.147600
115.721417	1.222400
112.939500	1.471500
114.026000	1.431900
99.939933	2.319400
105.419533	2.015200
111.613850	1.674600
112.870567	1.581800
121.700833	1.208800
125.145667	0.988100
121.074183	1.208800
114.733233	1.600000
114.971467	1.673900
116.806600	1.623600
115.543200	1.761300
119.222283	1.531900
116.029300	1.708200
130.167967	0.861800
118.527250	1.553400
118.098883	1.616800
121.938367	1.380800
116.716367	1.743800
116.999800	1.734300
125.622067	1.224200
125.580583	1.215100
116.386850	1.912800
115.331233	2.023600
129.974367	1.215800
129.456900	1.231200
130.139800	1.188900
126.072283	1.424200
124.731183	1.645900
121.397167	1.875500
133.032650	1.173900
127.327033	1.525900
128.690967	1.450100
127.666383	1.528900
129.530383	1.443100
130.271117	1.442000
136.603383	1.084000
136.329667	1.095800
136.832500	1.077600
133.856567	1.301600
123.693217	1.918700
133.332567	1.355900
133.816433	1.334200
130.298333	1.557100
134.754150	1.290900
135.068167	1.420400
134.594867	1.456400
132.566200	1.606800
132.347983	1.616200
135.638817	1.533500
136.014633	1.548400
132.762400	1.773900
142.058317	1.222400
144.842700	1.060200
137.912700	1.468200
129.846433	2.039800
133.671883	1.879600
138.685050	1.609200
144.538317	1.261100
148.751917	1.027700
140.880950	1.490400
137.047067	1.866200
139.416467	1.739600
149.103850	1.152900
135.668567	1.982300
141.318633	1.708900
145.115850	1.567200
135.104650	2.185800
141.657933	1.841500
144.720083	1.663600
146.891383	1.514800
150.503983	1.299700
146.232617	1.693400
138.167717	2.161400
139.617250	2.146800
143.062450	1.966500
141.922650	2.042400
146.540700	1.759800
142.547533	1.980100
142.889283	1.992100
164.702267	0.886700
151.832600	1.631400
144.807333	2.096200
148.258083	1.910500
149.813667	1.857800
145.387233	2.108800
154.391483	1.578100
152.233367	1.718600
155.642850	1.628400
158.724550	1.463700
142.285483	2.437900
147.272567	2.166500
155.139133	1.786300
153.525017	1.923200
155.718967	1.814600
159.107367	1.648700
161.075567	1.523300
154.379433	1.903300
152.420933	2.070400
158.903083	1.758700
160.580967	1.654700
155.894667	1.973000
157.114283	1.918000
160.268517	1.746200
163.491183	1.540300
162.697467	1.737200
158.667600	1.977900
161.068300	1.846500
166.371467	1.533500
165.516300	1.648500
160.094517	2.028800
162.208433	1.981600
165.724217	1.763600
174.579600	1.222800
167.228417	1.653500
167.453717	1.686800
170.548867	1.592900
175.593733	1.308700
172.497967	1.510100
166.267217	1.893500
162.195300	2.108100
164.877333	2.031400
169.633983	1.840300
168.145133	1.951600
168.312133	1.947100
172.768400	1.679400
165.485100	2.129100
162.758817	2.315000
172.368017	1.866200
174.498550	1.717800
177.924300	1.499100
172.420400	1.837200
175.617600	1.744800
183.673783	1.256500
179.538700	1.482600
177.376817	1.621400
183.437567	1.295600
177.415117	1.664600
176.989733	1.721800
177.683017	1.707800
181.243583	1.575100
176.775467	1.796900
181.239683	1.523500
172.463483	2.057500
185.811217	1.401200
193.264550	0.966000
189.628283	1.210600
181.407000	1.701900
172.450500	2.285100
180.978333	1.838200
182.188233	1.813000
181.182733	1.924300
184.263317	1.750100
187.436283	1.563700
178.866917	2.079200
182.238683	2.003200
183.474583	1.931800
188.525533	1.677400
186.569933	1.781500
185.052850	1.883100
187.703617	1.727000
185.766700	1.968300
187.028383	1.911400
190.204650	1.725600
188.059033	1.861600
191.704167	1.724600
197.747833	1.379500
182.409350	2.348700
196.373200	1.485900
189.586517	1.845200
192.461533	1.691200
198.336917	1.403000
196.412183	1.591600
188.327950	2.097000
195.173533	1.716700
189.048283	2.100700
196.577833	1.652200
208.177050	0.970500
198.528550	1.580700
198.677800	1.578900
188.555983	2.189800
199.342867	1.552400
200.046433	1.634200
200.062917	1.663700
200.485033	1.642000
197.285767	1.848500
202.953883	1.512700
203.545217	1.476500
203.654550	1.610400
202.965900	1.662000
202.100367	1.774400
203.313850	1.726800
201.926800	1.816200
197.038383	2.116000
191.630383	2.600500
208.974683	1.574500
202.770250	1.934400
197.735500	2.283300
202.381150	2.052000
204.183900	1.983600
202.643450	2.095500
207.407733	1.833400
199.891033	2.302300
210.655150	1.672500
207.947417	1.879100
217.273817	1.421000
211.023900	1.783200
215.093667	1.601000
213.650083	1.688800
210.516433	1.878400
204.188633	2.259100
216.204200	1.663800
218.530833	1.555300
209.844450	2.089500
218.088800	1.584900
220.593700	1.534200
221.422133	1.513300
214.282333	1.983700
212.946067	2.073500
227.130483	1.242100
224.980900	1.354200
222.168433	1.548400
218.204600	1.838400
218.164150	1.862700
216.792350	1.979700
213.688250	2.175000
218.260100	1.902300
214.978600	2.152200
220.598567	1.948400
220.466233	1.962400
225.459483	1.687900
218.311683	2.113900
221.271717	1.952000
216.778450	2.214000
221.169883	2.122600
219.960167	2.189300
228.515733	1.676200
219.160483	2.220400
230.423050	1.690500
229.715967	1.728200
238.378117	1.226300
225.100917	2.007800
229.708833	1.854400
229.103117	1.904000
236.322533	1.485100
233.168350	1.681800
220.085300	2.502600
229.786767	1.921100
229.549417	2.009600
232.085717	1.855700
235.377617	1.668800
233.688067	1.790600
226.770817	2.233400
227.991850	2.153400
228.452617	2.183900
238.629233	1.673500
244.073383	1.362700
231.540583	2.153500
238.505383	1.736800
239.327133	1.705000
240.986350	1.607700
245.619517	1.470200
239.825700	1.829100
240.448017	1.841300
244.443183	1.585600
242.543700	1.686600
247.723467	1.395500
247.036833	1.555000
246.379917	1.599500
236.753317	2.172200
247.796867	1.494500
242.786733	1.821100
248.395883	1.521100
240.303150	2.086500
241.067483	1.981000
243.043567	1.897700
251.278467	1.408100
245.197633	1.849300
245.001367	1.961300
240.386283	2.257300
244.337450	2.077500
238.044983	2.461300
242.466850	2.231400
241.321417	2.318900
242.866167	2.345900
246.608233	2.139700
254.878533	1.639600
248.839017	1.998800
253.197583	1.861300
263.663783	1.249900
252.915567	1.916300
261.218633	1.430500
244.482533	2.439700
251.319800	2.039700
251.567083	2.093500
260.988350	1.547400
254.091567	1.958000
244.961900	2.518500
263.317733	1.434700
259.520617	1.664000
257.989150	1.846800
256.117483	2.003800
254.488117	2.106800
263.612967	1.581200
258.269500	1.902900
254.733800	2.108700
262.960333	1.699900
265.216150	1.676700
270.335083	1.362700
260.520667	1.961900
260.998733	1.960600
259.790733	2.077000
262.765850	1.917900
267.009883	1.669000
264.056100	1.833900
267.902617	1.764800
259.793283	2.236000
260.253333	2.257300
261.347133	2.228800
267.241967	1.908200
265.797383	2.015500
264.840333	2.052400
264.302250	2.114700
260.707883	2.367100
266.915467	2.039600
263.704567	2.272700
262.155533	2.345500
265.978100	2.224500
272.252467	1.908200
290.062783	0.927400
275.510783	1.776400
279.794633	1.539400
274.916667	1.834100
276.413267	1.827200
276.562033	1.895200
273.826617	2.069600
268.905517	2.387000
276.609683	1.930000
274.612067	2.048900
277.303967	1.906100
273.553533	2.281000
268.643300	2.573400
273.813983	2.307700
278.447250	2.016900
282.239483	1.917400
285.014033	1.783600
284.516017	1.847300
287.902200	1.649400
273.305467	2.534300
284.493567	1.862300
283.709817	2.048000
287.137183	1.857100
278.065750	2.390700
284.974600	1.994700
280.392283	2.325700
282.791483	2.267200
283.370817	2.264000
282.419967	2.375600
284.309017	2.279300
285.983433	2.188600
288.726400	2.053500
284.366533	2.425300
284.429467	2.446400
284.233400	2.503500
291.283450	2.084400
287.928700	2.284500
293.437033	1.942900
281.642583	2.774200
288.814700	2.371200
290.209367	2.305700
291.097183	2.245600
296.194567	2.071700
287.799233	2.609500
291.893517	2.416400
296.201050	2.143800
293.049317	2.342600
296.841117	2.120600
294.831017	2.354000
292.470817	2.515400
294.247217	2.425700
294.888867	2.375600
287.985100	2.908200
296.111100	2.439000
298.519667	2.325500
302.641667	2.082800
304.668383	1.987300
304.000317	2.048600
302.296067	2.142200
298.312300	2.387400
302.421433	2.205100
302.774050	2.240100
297.674383	2.569000
307.490683	2.003200
312.346650	1.700100
305.508717	2.239100
311.483950	1.885800
302.371183	2.408200
303.958617	2.319500
308.937617	2.167400
312.278683	1.984600
313.355467	1.958900
299.872233	2.766700
317.729450	1.773900
313.485217	2.019200
309.225567	2.265500
313.500383	2.024200
301.271700	2.796300
316.738867	1.855700
299.561733	2.904700
302.656117	2.732600
305.334417	2.685200
311.139817	2.409800
311.634333	2.437900
314.393600	2.276700
309.296350	2.561400
315.258000	2.217300
309.113683	2.639500
319.609733	2.121700
320.803700	2.077500
315.327233	2.418100
302.787350	3.170700
311.861433	2.642500
315.924100	2.423100
313.088850	2.727300
327.775200	1.862700
324.298383	2.042200
321.793633	2.160700
325.613767	2.050100
323.051133	2.239000
324.498667	2.170400
325.451617	2.152700
312.042900	2.958900
322.791033	2.306800
317.435283	2.680900
320.069933	2.545600
318.077517	2.693900
317.505700	2.771700
317.316650	2.821500
320.871667	2.618900
324.757450	2.414100
328.080983	2.243200
329.966083	2.136700
329.998717	2.141900
335.819750	1.811100
330.387100	2.326500
328.345533	2.478400
317.068633	3.223600
331.402117	2.357900
331.882683	2.323600
339.399017	1.891700
329.738483	2.512300
329.441483	2.553700
327.238250	2.711400
330.804867	2.501600
328.194600	2.663400
333.912667	2.331500
343.319150	1.809600
335.118700	2.319000
346.697133	1.654300
344.580467	1.766900
341.720600	2.034000
333.771400	2.552100
343.420233	2.002600
338.604100	2.330700
342.439367	2.121500
338.284350	2.380200
340.291783	2.265700
336.385917	2.557400
336.232983	2.581900
340.975433	2.321500
338.960633	2.461300
344.846333	2.119300
342.872183	2.292100
346.324767	2.201900
344.620233	2.306800
348.147267	2.110100
339.343417	2.644100
345.206650	2.445300
350.987933	2.098600
342.770333	2.640100
343.753933	2.599900
337.156300	3.030600
339.312183	2.896000
342.016467	2.856500
349.701933	2.450200
341.487617	2.992100
347.807550	2.649000
353.924133	2.296300
347.472633	2.688400
361.915783	1.992100
348.628083	2.782300
347.872450	2.857500
355.081167	2.393300
361.311867	2.056400
361.010533	2.165800
357.387850	2.422200
362.409633	2.169100
362.097900	2.198100
361.600183	2.239000
358.006817	2.453600
358.049450	2.520300
361.444100	2.340000
364.102500	2.187900
355.964717	2.679200
348.295467	3.135500
357.123383	2.627500
365.092583	2.317300
361.786350	2.524800
358.787133	2.712400
367.683650	2.171100
371.725517	2.022500
371.780583	2.056600
361.636100	2.663400
365.887467	2.454200
367.232017	2.362700
363.066117	2.615600
364.769233	2.642500
358.382033	3.024700
360.145400	2.938800
370.659633	2.317300
366.966233	2.558500
374.537767	2.234000
374.069767	2.264000
369.217100	2.605800
368.816067	2.633900
367.730683	2.701900
368.801083	2.639800
368.561933	2.727700
373.575633	2.460400
371.734333	2.625400
368.974217	2.799200
378.729533	2.236000
373.378333	2.532700
379.965917	2.266700
376.384267	2.506100
367.896650	3.070800
374.287333	2.695600
378.986183	2.409100
378.774117	2.419100
380.442550	2.432700
380.232817	2.462300
377.696983	2.648800
390.495733	1.940200
388.182283	2.091100
386.605883	2.187700
386.754583	2.184700
392.663050	1.887900
389.303750	2.086500
380.765400	2.590800
384.148667	2.440700
389.585633	2.197600
387.988267	2.312000
387.512500	2.401200
380.398433	2.830600
379.759100	2.876100
376.788583	3.078700
383.309417	2.807000
381.468333	2.949700
384.455217	2.860100
384.011000	2.878800
386.698433	2.740000
390.012067	2.551100
378.447117	3.369800
386.605317	2.911700
389.651217	2.708000
385.682483	2.957200
391.913050	2.674800
391.910183	2.752000
390.714950	2.833200
387.462650	3.051600
394.511133	2.636500
396.857617	2.504900
388.650833	3.053800
392.188467	2.944100
395.198150	2.775600
396.186417	2.755400
395.626383	2.776600
403.647850	2.295000
407.549000	2.050200
397.414767	2.826500
404.517383	2.392000
405.225350	2.326800
399.675083	2.682700
406.365517	2.382500
399.259367	2.834600
391.962050	3.300300
402.530417	2.658200
402.226900	2.712900
403.509983	2.635900
405.761567	2.541800
400.012700	2.912100
403.015500	2.828700
402.898617	2.820200
400.146700	2.991600
397.276767	3.176300
410.097800	2.595300
405.737050	2.848800
411.906667	2.516600
409.194600	2.662800
408.796100	2.726400
407.824100	2.908200
412.872350	2.648100
415.378183	2.547400
414.328067	2.620700
418.731550	2.339100
411.583533	2.772700
410.008233	2.925700
406.976267	3.143900
413.478817	2.816000
413.241850	2.836500
410.537683	3.003700
412.841583	2.850700
407.583767	3.220700
416.788967	2.706200
412.717583	2.985100
416.604567	2.780600
416.570750	2.838300
427.352850	2.200800
422.269867	2.535500
419.418750	2.693100
414.660883	2.996500
415.703283	2.925700
412.893933	3.198400
416.861050	3.034500
422.075467	2.778800
425.042583	2.612800
422.754450	2.741400
422.578650	2.760300
418.503683	3.088900
422.726633	2.931700
430.890250	2.452800
430.466400	2.480700
429.061333	2.558500
433.224100	2.359200
428.942117	2.632700
425.010883	2.915200
424.985217	2.927900
432.881800	2.466000
432.327917	2.516600
427.023317	2.965700
427.365050	2.965800
437.344650	2.401200
431.886367	2.748500
437.304183	2.427100
429.464650	2.876700
432.200333	2.832700
440.421917	2.397500
432.571117	2.901200
436.609533	2.633200
430.090367	3.094400
432.433683	3.010900
424.491950	3.660000
436.133900	2.946000
438.651750	2.790900
435.430100	3.012900
431.925767	3.278600
438.664133	2.946700
442.828867	2.711300
441.946733	2.767600
449.323283	2.333800
445.629017	2.573600
433.926417	3.281600
441.562383	2.907100
437.653850	3.153900
441.518017	2.933300
440.869700	2.989500
450.024317	2.508200
448.897083	2.591500
448.795667	2.649500
444.760283	2.870200
450.223717	2.550200
445.440067	2.844200
451.508750	2.606100
448.988767	2.798000
444.267867	3.156500
442.875300	3.228900
450.279383	2.799100
451.592717	2.713100
458.431600	2.422200
453.223583	2.769700
450.214350	2.956500
449.638300	3.011700
454.412783	2.782900
454.405067	2.899100
458.855117	2.650700
455.575067	2.844200
460.987483	2.595700
467.135517	2.313800
464.502200	2.459400
456.256000	2.963700
458.307333	2.879500
464.628300	2.540700
466.188150	2.461500
457.717833	2.954500
463.075567	2.656700
466.455250	2.588700
462.759400	2.829000
458.464583	3.109300
470.242450	2.417700
472.918617	2.314700
461.221583	3.016000
465.874083	2.911000
463.632017	3.080000
473.144217	2.510300
471.957783	2.568400
462.447883	3.170500
471.900583	2.634400
469.898900	2.765100
468.623600	2.846400
460.306983	3.356500
461.683350	3.313200
469.934150	2.832000
466.920067	3.032000
464.181583	3.217900
470.186567	2.885000
474.522417	2.624300
485.460117	2.141300
473.470267	2.878100
467.672850	3.292800
478.449367	2.664800
473.334400	2.940600
473.586633	2.941900
477.593183	2.849200
477.192067	2.905400
474.872650	3.072600
479.666633	2.795200
480.468867	2.760200
476.877917	2.985800
478.947050	3.000900
480.958400	2.893500
476.567917	3.156500
476.901533	3.133000
483.629867	2.819000
481.273150	3.009600
471.191983	3.707200
477.422333	3.339700
490.403383	2.569000
485.639633	2.847700
484.233500	3.007200
480.519550	3.322800
482.424433	3.210400
486.879250	2.960400
491.248917	2.729900
489.101517	2.976200
490.024200	2.910000
487.949617	3.091400
486.943083	3.176800
488.924067	3.083000
490.906083	2.944600
481.777600	3.624600
479.244100	3.833100
485.570100	3.527100
490.917267	3.215900
487.528250	3.420000
495.530567	2.959100
486.524517	3.553400
486.184467	3.563000
495.930900	3.020100
491.206200	3.292800
491.991017	3.289700
500.019183	2.842900
496.411017	3.073400
498.717733	2.946700
503.705150	2.691000
501.330267	2.843600
500.907583	2.883700
498.761983	3.006100
499.635283	3.020800
499.010350	3.172200
506.585200	2.721900
500.862867	3.080600
501.241967	3.065600
504.140083	3.024700
503.048167	3.114500
499.757533	3.350500
503.794750	3.129900
504.099783	3.121300
506.854417	2.942900
507.005917	3.002600
504.208967	3.177500
506.014800	3.069900
508.988233	2.895700
504.476850	3.212400
504.153700	3.255600
496.424217	3.736100
504.308433	3.291100
503.358433	3.371500
505.706500	3.235500
501.156317	3.602000
504.040900	3.508200
510.839300	3.136200
508.700483	3.268000
505.365267	3.494600
515.749667	2.882000
516.099600	2.934600
511.573900	3.270600
520.185433	2.798200
515.707167	3.073400
517.074000	3.022500
512.092300	3.432900
506.515917	3.786800
520.636200	3.020100
518.288633	3.184900
523.263733	2.886400
515.388317	3.361400
519.161083	3.288700
529.752617	2.701700
525.084500	3.022200
525.005950	3.030600
524.032067	3.108200
531.189250	2.674500
537.146067	2.485100
530.023917	2.906000
538.483300	2.411700
535.199633	2.582800
529.778067	3.013400
530.811700	2.959800
549.778467	1.845200
530.496050	3.011700
533.388417	2.838800
532.611750	2.881800
528.987900	3.163200
538.096900	2.721900
528.517317	3.298100
533.319000	3.020100
528.766600	3.285600
529.063683	3.344500
532.417733	3.159700
530.267067	3.319100
535.128133	3.046300
529.578533	3.464200
536.224700	3.079200
535.920633	3.084700
531.940783	3.335800
531.859200	3.486300
542.009633	2.904700
536.763617	3.217100
530.274117	3.616400
536.493550	3.353400
533.122100	3.605700
542.880767	3.095600
532.376583	3.701200
543.376417	3.069800
550.227717	2.669300
550.413150	2.740200
550.516833	2.756500
537.243533	3.569800
541.700283	3.325600
549.091767	2.888600
547.154083	2.979400
541.696100	3.387300
542.976033	3.445300
543.146117	3.456200
538.914967	3.721400
541.745750	3.604800
553.901833	2.932300
556.751883	2.761900
550.960650	3.160800
556.571717	2.825600
553.221033	3.037600
560.567567	2.610200
555.878517	3.017000
551.441517	3.319700
558.088400	2.982600
559.261333	2.921200
558.888983	2.936800
558.643517	2.958800
553.058500	3.426600
561.494783	2.957800
553.496433	3.445000
554.018383	3.432700
551.625883	3.640000
560.099517	3.223400
561.171533	3.198400
565.441000	2.976300
563.820217	3.083000
561.480050	3.228600
559.300167	3.421100
564.775883	3.197200
568.371350	2.978100
568.944483	2.967700
564.920800	3.203700
555.934783	3.735400
554.337933	3.850900
563.973900	3.435900
559.003700	3.763500
567.994400	3.221700
568.353267	3.213800
566.513383	3.424000
569.995833	3.239800
569.368450	3.343200
560.937317	3.852800
565.667383	3.569500
565.913550	3.568500
559.924167	3.977300
562.262800	3.854400
576.598500	3.003300
572.807567	3.232700
566.608983	3.651100
577.412100	3.051000
572.620917	3.397700
565.533317	3.839600
580.877667	2.947400
575.459300	3.256800
573.016983	3.480100
572.538717	3.598400
573.406633	3.582400
576.283417	3.412700
587.231083	2.808100
576.187267	3.564800
575.677850	3.613200
580.040633	3.435400
590.635133	2.814700
580.350100	3.416100
582.411100	3.331800
581.726900	3.357600
581.864567	3.348500
578.020983	3.728200
580.416083	3.612100
589.636267	3.065600
580.890283	3.587200
587.882183	3.282400
582.960700	3.627900
605.369433	2.327800
590.592817	3.227000
586.005467	3.479600
584.504217	3.577400
592.197083	3.145000
600.166133	2.713000
586.111817	3.530600
583.568483	3.708400
586.869433	3.535600
591.048700	3.314400
588.127000	3.548100
586.258317	3.758600
593.707417	3.329600
590.720700	3.500400
594.347933	3.318700
589.242533	3.749800
590.691583	3.714700
599.748883	3.265600
595.974367	3.474200
596.305267	3.454400
595.936867	3.496400
596.881717	3.485600
593.504417	3.692300
595.739250	3.620700
598.560267	3.475700
600.006250	3.398400
601.295550	3.334800
599.852167	3.562100
597.615667	3.701300
605.042883	3.263500
607.133733	3.120100
598.167667	3.776300
595.545267	3.971600
600.521333	3.747400
610.490900	3.161700
602.365800	3.681000
602.234683	3.693400
601.050433	3.814600
609.308983	3.434800
612.082633	3.279400
609.397500	3.457200
613.839050	3.200100
607.801383	3.544000
608.860467	3.490400
604.908317	3.892700
614.469333	3.318700
611.813800	3.497400
608.753700	3.672900
610.645567	3.703700
611.474900	3.678600
623.586200	3.033600
618.072183	3.339700
621.310883	3.123700
612.087700	3.702000
611.318683	3.799000
622.172033	3.154600
620.679317	3.277700
617.499383	3.474700
615.665267	3.583700
619.830067	3.338900
621.215283	3.310000
618.041950	3.518400
608.973833	4.062100
610.919450	3.964200
615.945767	3.754400
614.257067	3.976700
614.604833	3.997900
621.596367	3.620000
625.555333	3.392500
614.465317	4.073300
616.666650	3.961800
618.811783	3.911800
627.478550	3.405000
627.907283	3.400600
618.742117	3.938000
620.485333	3.853000
625.090850	3.587400
634.506867	3.157100
626.504067	3.657200
631.473833	3.415000
628.217467	3.630800
622.113083	4.001500
630.220200	3.522300
631.706500	3.457800
628.520717	3.680300
631.671183	3.526300
630.782367	3.559400
633.318583	3.394300
629.214767	3.679700
632.289333	3.647200
633.239233	3.804100
637.122033	3.596200
636.729533	3.646900
636.981800	3.643500
639.926817	3.491600
641.238067	3.450200
640.427967	3.592400
636.424883	3.833500
643.434800	3.446700
637.014617	3.801200
642.265067	3.506000
639.893417	3.656000
640.675617	3.816800
644.326217	3.611600
645.222217	3.571100
653.186217	3.084800
651.979467	3.131000
656.207350	2.889600
646.932683	3.426400
641.171133	3.782200
649.142633	3.594400
641.607017	4.038800
650.584933	3.517600
649.373950	3.589500
653.252550	3.492900
653.097217	3.526100
648.894650	3.772800
650.998083	3.678400
652.578817	3.582200
651.024600	3.662100
653.677217	3.612800
654.728150	3.575400
652.726350	3.702000
655.719067	3.560300
653.674183	3.752500
657.297933	3.633100
663.312100	3.293700
666.411883	3.108700
655.081533	3.795700
654.234733	3.838900
654.269067	3.873800
657.838217	3.662600
657.870400	3.675300
652.096900	4.020600
656.041850	3.804600
664.036417	3.624800
659.328350	3.946200
658.679267	3.994400
664.633650	3.657000
668.884900	3.415200
672.116483	3.208900
661.693317	3.837200
663.913883	3.722200
655.767533	4.256200
663.867217	3.815300
669.189467	3.528500
672.924883	3.316900
666.964433	3.838300
673.606367	3.437900
670.539900	3.628500
663.475417	4.093400
667.173217	3.920300
677.955417	3.387800
672.676950	3.735000
674.866633	3.637900
672.073583	3.817300
669.836717	3.949100
669.237433	4.017400
665.944467	4.235900
670.742317	3.953000
670.767500	3.943800
674.734733	3.711700
677.908117	3.781400
681.567750	3.616800
688.131233	3.210100
673.415783	4.093300
679.244667	3.743900
680.711650	3.668400
676.681783	3.971200
676.210967	4.024100
686.734450	3.436500
680.728517	3.785900
674.466150	4.166100
693.106350	3.090300
676.577867	4.087100
684.572317	3.632900
682.918683	3.729700
687.862967	3.440300
679.086133	4.019800
681.199500	4.115700
686.984667	3.822200
694.773133	3.391000
690.655800	3.622500
690.930200	3.624600
692.218133	3.565600
687.717567	3.968000
676.873483	4.649800
684.905867	4.200200
686.985033	4.099000
695.557200	3.649500
697.262350	3.571200
692.967583	3.829000
690.190383	3.999700
694.845967	3.735200
696.670733	3.642700
688.101000	4.227300
701.768200	3.435300
698.802200	3.636600
696.364200	3.820500
696.438233	3.850300
697.824400	3.790200
680.795983	4.803400
707.496017	3.267800
702.395950	3.552300
694.069300	4.038300
696.484117	4.014200
702.838800	3.836400
699.173800	4.083600
697.893133	4.164100
697.342500	4.221600
703.695667	3.911000
713.228217	3.343700
705.916883	3.799000
698.530317	4.238600
710.260450	3.689700
706.352317	3.967700
711.986200	3.636600
707.927600	3.882900
708.808083	3.861100
710.788000	3.730800
709.866200	3.791100
707.845217	3.918200
710.234683	4.013200
710.418133	4.083700
712.651267	3.966800
719.221850	3.598800
718.181050	3.643200
711.614183	4.033000
717.378450	3.709800
721.262733	3.467500
721.000067	3.485900
715.398967	3.795800
716.805200	3.845700
712.653333	4.319200
714.846833	4.204600
716.499833	4.153000
715.682417	4.200200
719.939750	3.982800
719.413867	4.017500
720.060767	3.987800
721.672250	3.955800
730.238133	3.686200
719.923617	4.313000
728.076883	3.869800
724.826783	4.050100
723.786400	4.208100
717.127767	4.624400
736.101317	3.512300
722.829833	4.280800
726.392267	4.175300
735.153483	3.657400
731.702767	3.876800
735.813867	3.626600
730.453917	4.048100
725.030300	4.421100
739.265750	3.607500
724.610783	4.488700
730.983600	4.118100
723.201733	4.583800
726.698267	4.430600
733.278617	4.079000
736.328717	3.894500
735.232383	3.972100
732.397717	4.197200
737.935183	3.879700
730.498400	4.336200
741.620017	3.731900
737.902717	3.945500
743.475300	3.616500
733.862517	4.217900
741.156750	3.821400
736.245733	4.127200
737.773267	4.109000
742.551900	3.834300
745.108617	3.687800
742.756683	3.857800
746.503533	3.778900
743.811450	3.932700
746.690550	3.791100
752.650433	3.430000
741.841883	4.202200
750.794183	3.731500
746.591900	4.055100
747.899333	3.980800
742.778167	4.292000
750.063967	3.842000
751.463850	3.873600
749.591400	4.032900
756.186250	3.672600
757.860667	3.612200
751.045583	4.039000
748.874467	4.166300
756.218483	3.827800
755.139667	3.966800
754.724300	4.009200
764.459750	3.432000
759.219067	3.773300
748.334750	4.551000
753.183383	4.305100
755.934083	4.186600
757.071900	4.116300
758.534850	4.023300
752.332800	4.410000
752.277033	4.522600
754.057783	4.461700
755.014183	4.457200
766.088833	3.817300
766.595900	3.789600
769.749233	3.587200
763.749283	4.072600
762.597067	4.165700
760.664283	4.294600
757.326900	4.485000
771.376850	3.753600
767.016083	4.085800
766.153933	4.216000
763.847533	4.318900
769.725900	3.967200
767.545467	4.130000
766.350917	4.245800
765.767200	4.386300
774.251417	3.890000
767.312117	4.342700
766.048400	4.400400
777.346633	3.749200
760.840417	4.740500
766.272300	4.508400
773.803083	4.061800
778.740800	3.830100
774.997383	4.065400
769.778233	4.401100
769.837417	4.400900
773.440600	4.229100
771.711517	4.344200
764.194217	4.799900
785.990467	3.496700
780.673483	3.971200
778.121583	4.212700
783.263400	3.974700
776.903483	4.358200
778.226450	4.283400
777.301817	4.354400
777.182083	4.420000
780.401117	4.350200
775.724500	4.625100
783.353067	4.206200
792.753900	3.688800
788.954417	3.982100
786.758100	4.115100
793.594133	3.758800
794.808983	3.685600
793.162867	3.754400
786.724583	4.116700
794.099767	3.743900
791.686917	3.896900
787.181067	4.252700
792.971000	3.887100
773.012383	5.097100
783.449017	4.508000
789.824617	4.202000
792.043667	4.086800
800.636750	3.639000
787.234483	4.432600
786.439900	4.494000
791.185900	4.213500
795.386267	4.028900
787.495550	4.589700
788.489067	4.571900
791.651100	4.381200
794.919783	4.248100
794.044567	4.404800
792.921667	4.497800
797.764050	4.193700
802.070333	3.971200
799.863283	4.158700
793.833233	4.550800
799.073383	4.290100
804.534683	3.979900
801.556117	4.221200
791.769050	4.812300
801.507133	4.243900
805.384500	4.044300
804.662350	4.257900
806.834633	4.142500
805.579333	4.216000
805.822083	4.213000
804.210300	4.468500
806.067383	4.390000
807.120967	4.390100
809.787350	4.239000
803.082017	4.677500
801.948767	4.729400
813.757000	4.143300
816.972783	3.979600
807.968800	4.572600
810.694983	4.418800
811.356400	4.395000
811.547600	4.385100
818.923167	4.079600
812.106450	4.515600
808.617633	4.711000
814.956950	4.335900
808.981967	4.717700
812.923600	4.552800
807.244450	4.918800
810.102717	4.797800
819.346283	4.262800
815.605767	4.495700
819.651517	4.260200
819.636567	4.402700
828.283717	3.907400
823.298483	4.230400
823.055050	4.240200
823.636783	4.340500
826.286983	4.215400
821.156500	4.572600
820.212333	4.631200
822.069683	4.538500
816.742083	4.836700
831.113617	4.065800
830.603467	4.164200
812.630283	5.249200
830.613817	4.189400
821.622367	4.740500
824.712433	4.552300
824.619817	4.608500
828.434483	4.510300
827.324417	4.583900
823.753817	4.834100
829.472333	4.504000
832.771300	4.322100
830.987583	4.444000
830.305433	4.622200
831.372733	4.570900
829.170533	4.703800
835.677450	4.334400
839.094200	4.223400
842.271267	4.067600
839.542983	4.285900
841.134167	4.207400
834.753183	4.547200
833.360000	4.637700
834.063800	4.706400
843.892450	4.176600
834.901850	4.777200
839.331583	4.474900
850.733333	3.810100
844.770600	4.168800
841.309233	4.367500
842.349883	4.366900
839.570000	4.566300
843.538617	4.389500
849.134183	4.035700
851.805667	3.892700
848.335367	4.119500
850.780667	4.140800
849.009317	4.229300
846.035283	4.408300
842.716683	4.634800
846.265467	4.561400
836.775567	5.144000
848.445233	4.513900
845.835250	4.684500
845.673833	4.711600
843.957283	4.815700
846.595733	4.743700
850.032850	4.561500
857.196633	4.155100
850.206150	4.570500
842.204717	5.080100
838.960800	5.299500
855.648250	4.438500
853.065250	4.694400
853.110950	4.718700
854.988833	4.607200
853.858317	4.706900
844.720517	5.379200
845.253417	5.395700
854.297433	4.933000
857.890933	4.701100
862.316900	4.432800
861.988783	4.482700
861.622367	4.634300
860.726050	4.692600
871.373117	4.073300
864.197217	4.502900
860.285333	4.759000
853.399083	5.161600
870.491100	4.299900
858.974900	4.978200
863.664817	4.719500
865.348867	4.653800
864.101867	4.852400
874.729750	4.258500
871.161467	4.525400
866.895550	4.798500
870.079433	4.626700
871.402717	4.534700
879.718600	4.126800
870.278533	4.728700
875.402583	4.429300
871.952450	4.676100
869.093350	4.851300
869.242383	4.846000
874.420017	4.553300
873.909500	4.716900
870.720767	4.925300
865.742533	5.235400
877.674217	4.571000
876.231433	4.781800
872.334133	5.052700
874.138517	4.972400
872.774033	5.047900
879.086833	4.693300
876.737317	4.838600
887.931017	4.276700
881.732767	4.663100
880.918633	4.788700
887.388600	4.412700
886.855450	4.437000
888.756683	4.305400
890.739150	4.289400
887.484883	4.513600
878.095750	5.081400
889.958800	4.364700
892.615917	4.225100
882.708900	4.879800
892.383633	4.327600
894.277533	4.262500
888.190900	4.632900
894.590233	4.226500
892.299333	4.377700
892.869683	4.474000
891.280950	4.575600
890.535150	4.710900
890.732817	4.704800
891.140667	4.688000
897.575783	4.337500
884.335117	5.317400
893.943217	4.765400
902.428617	4.273100
895.331817	4.698500
895.903367	4.697600
897.401750	4.646100
895.180083	4.803400
886.821017	5.330000
892.112317	5.048600
893.611450	4.989600
896.860383	4.955500
895.071633	5.065000
902.559817	4.656500
902.786083	4.628800
903.116600	4.712700
905.032617	4.647500
908.299483	4.499200
903.719250	4.787700
902.835267	4.840100
901.129967	4.938500
914.028483	4.254700
904.950083	4.867600
901.329867	5.104100
913.528717	4.415300
908.655933	4.708300
899.121083	5.280100
906.218967	4.867400
914.074533	4.541200
921.540700	4.099800
911.982333	4.661200
921.305650	4.119300
910.957217	4.831400
911.421083	4.852900
907.601550	5.141700
922.903783	4.234600
912.985000	4.837200
917.576983	4.573300
917.676983	4.693300
917.840183	4.702900
912.215967	5.055200
913.939200	4.963800
919.695183	4.711600
917.602767	4.891700
924.584300	4.523400
917.743717	4.948400
913.548200	5.238300
920.343567	4.885400
922.061383	4.782400
923.661700	4.689900
920.136433	4.945000
918.075233	5.188300
927.918950	4.628100
933.579200	4.281300
927.216683	4.717900
924.960600	4.947000
928.789917	4.721600
932.660083	4.546900
929.550867	4.753400
926.073583	4.942600
931.496300	4.595400
928.270767	4.926200
927.924633	4.978900
928.914883	4.962700
930.543083	4.860400
929.634117	4.960100
933.243583	4.729300
919.095417	5.663600
924.105050	5.375400
921.449333	5.544700
931.080117	4.991600
931.375567	5.049500
928.180267	5.437700
938.338467	4.847300
933.295700	5.191500
935.812867	5.034200
936.283167	5.037200
942.776183	4.665400
942.181467	4.847600
943.471567	4.759700
944.867950	4.737300
936.185883	5.277400
936.976583	5.241100
930.790650	5.634000
939.767233	5.249200
939.138267	5.309300
946.749633	4.863400
944.413617	5.008400
936.826983	5.584000
946.851983	5.022400
956.981383	4.417000
957.477367	4.396400
956.810717	4.389500
948.257250	4.896600
947.463367	5.002700
948.219150	4.982400
941.258233	5.422300
951.030283	4.834300
947.469117	5.153300
949.459817	5.111600
956.176133	4.723300
953.733783	4.921600
951.742617	5.052500
948.262100	5.274000
949.383533	5.240200
965.232533	4.425100
961.133983	4.691800
957.154150	4.962900
949.711283	5.414200
958.755283	4.905700
955.302833	5.116600
956.909400	5.141700
954.771500	5.318100
958.049283	5.168500
959.835567	5.066900
957.027150	5.248200
954.015617	5.426300
962.098917	5.055200
963.986733	4.980100
959.037083	5.322700
961.035483	5.202700
962.398383	5.139100
958.950000	5.353800
959.239600	5.397600
965.668433	5.121400
973.886850	4.637700
968.251017	4.987400
967.679050	5.040300
976.636333	4.625800
974.105100	4.806900
975.041917	4.799000
965.700200	5.376900
969.133400	5.193900
969.014517	5.190800
969.993617	5.274800
968.713850	5.390100
967.653967	5.480000
978.457850	4.846800
971.539967	5.242100
979.228983	4.775200
983.122967	4.721600
974.645333	5.205100
980.156850	4.876800
972.784817	5.330900
981.784033	4.919500
981.099533	4.997500
991.558100	4.420500
980.048717	5.105300
986.720333	4.695700
990.060200	4.483500
983.407483	4.957300
987.675583	4.803400
987.045250	4.844100
986.828850	4.846800
982.062900	5.180100
982.206483	5.318200
990.103200	4.857300
985.134050	5.178600
985.604933	5.143900
993.832567	4.709000
985.516517	5.190800
985.918450	5.174400
985.027617	5.241200
978.214267	5.697200
988.946500	5.082300
989.108583	5.076100
987.654617	5.175800
985.616017	5.433500
986.661267	5.424800
989.804917	5.317400
992.778633	5.128000
988.805383	5.390800
997.682583	4.877500
988.897783	5.498200
1000.568917	4.894100
1005.516800	4.622100
1004.447050	4.709700
1001.033917	4.896200
985.225433	5.854300
991.182367	5.530700
992.272667	5.546000
992.712433	5.554300
1002.050467	5.002700
1005.776350	4.779300
1003.573633	5.052100
995.216833	5.583700
1009.078350	4.797600
1004.140717	5.096300
1003.412333	5.160700
1004.306367	5.111600
1003.344350	5.314800
1004.213483	5.303200
1013.324017	4.789400
1012.180350	4.855200
1003.497700	5.486700
1006.329167	5.350100
994.046417	6.172400
1014.022033	4.998700
1011.756000	5.117400
1012.027800	5.104800
1016.761500	4.883100
1012.618983	5.246200
1006.702050	5.613900
1010.823633	5.397400
1014.072217	5.253800
1014.136550	5.231400
1016.147817	5.168300
1019.816900	5.120700
1023.917433	4.863100
1019.048717	5.156300
1024.002017	4.880300
1026.586250	4.725300
1013.442650	5.525100
1020.554717	5.237300
1018.595617	5.368100
1033.420400	4.461900
1018.650550	5.322300
1023.483350	5.147700
1026.787917	4.982600
1022.291300	5.325300
1017.550083	5.626900
1018.346817	5.612900
1021.502367	5.441300
1029.534333	5.109700
1023.606250	5.481600
1032.204850	4.967100
1029.781700	5.131200
1023.906183	5.604400
1027.255000	5.472000
1032.482567	5.183900
1028.024967	5.481200
1035.592150	5.028300
1025.607967	5.643200
1037.307383	4.982500
1034.718817	5.175800
1027.876267	5.594900
1033.807117	5.287400
1029.353617	5.545400
1030.741800	5.481600
1021.683383	6.114700
1025.294233	5.954800
1026.593250	5.941200
1027.531350	5.898600
1021.464733	6.280900
1036.766833	5.486500
1034.730650	5.623200
1044.940183	5.090800
1042.963917	5.211200
1040.066483	5.389300
1044.016017	5.154800
1033.991383	5.843800
1041.910133	5.456500
1042.533300	5.396100
1044.191900	5.340900
1039.462967	5.623400
1037.901317	5.720000
1049.188250	5.265000
1043.204083	5.573800
1044.582067	5.505500
1039.775950	5.808600
1038.129117	5.982800
1041.924900	5.853900
1043.806733	5.752000
1042.633017	5.850800
1049.646367	5.459000
1052.997900	5.399400
1054.397300	5.343600
1056.290567	5.261900
1050.329217	5.617100
1048.433633	5.770600
1050.629233	5.658700
1051.196983	5.627200
1060.885567	5.039000
1055.059600	5.539500
1060.066900	5.223600
1060.259717	5.196800
1053.243467	5.624900
1053.653083	5.647900
1058.937917	5.360600
1054.795267	5.646800
1058.727633	5.426200
1045.552067	6.240500
1055.605000	5.632800
1058.321100	5.566800
1058.231633	5.650300
1060.425400	5.579700
1061.111717	5.579000
1062.858483	5.488300
1069.264550	5.106900
1069.179867	5.135900
1064.735883	5.540800
1060.823217	5.765000
1064.998783	5.593300
1066.143300	5.539800
1059.850900	5.927700
1067.276183	5.494900
1063.641967	5.879900
1060.731617	6.075500
1076.471000	5.158800
1074.023050	5.306100
1065.505300	5.926500
1064.728850	6.015900
1073.532350	5.529000
1074.141333	5.518000
1074.968983	5.472100
1076.872800	5.344200
1079.682267	5.232500
1078.778467	5.355500
1079.131233	5.401300
1070.231617	5.928800
1071.948217	5.819000
1074.649400	5.685900
1079.486400	5.448900
1077.960500	5.650500
1082.557450	5.384100
1082.170767	5.412500
1075.779767	5.864900
1079.456717	5.734400
1075.959183	5.953300
1083.079067	5.593700
1081.454783	5.694400
1079.350767	5.837900
1084.769033	5.507200
1076.613050	6.128400
1077.254617	6.141200
1096.696617	5.035700
1090.758300	5.351400
1086.582850	5.607900
1083.408100	5.828400
1089.265517	5.634200
1088.399783	5.696200
1090.161150	5.590200
1091.330700	5.519400
1093.409550	5.493600
1093.197317	5.573300
1093.506283	5.597200
1101.865117	5.133500
1096.404433	5.422300
1092.150950	5.685300
1089.411100	5.886300
1092.799367	5.723300
1095.145767	5.663600
1096.753750	5.645400
1101.119050	5.396100
1086.192317	6.278600
1093.032083	5.880100
1099.090167	5.671700
1097.119650	5.782500
1094.805967	5.921300
1095.764450	5.883900
1092.719583	6.216100
1093.639050	6.189600
1098.000717	5.946800
1095.412600	6.102900
1102.504683	5.692000
1104.596833	5.563600
1109.159083	5.438800
1098.787500	6.076200
1105.068333	5.707000
1100.780250	5.969400
1111.304517	5.445500
1104.177500	5.917200
1114.256417	5.359400
1112.342483	5.489200
1106.101150	5.851800
1106.784200	5.813700
1105.668200	5.899200
1107.164617	5.881400
1112.847383	5.554900
1103.601717	6.149600
1102.374017	6.261500
1108.877117	5.882900
1108.119400	5.934600
1103.750317	6.368300
1104.739650	6.359700
1114.452567	5.809100
1120.096717	5.479400
1121.925000	5.374200
1115.719500	5.745300
1120.670833	5.594800
1114.118667	5.997500
1110.693733	6.228100
1113.204633	6.093700
1118.438067	5.948600
1119.225100	5.923200
1111.011733	6.429400
1114.774783	6.225400
1117.158500	6.227400
1116.309117	6.310700
1122.186667	6.015800
1121.975367	6.065300
1127.576617	5.765900
1122.060083	6.136900
1119.043683	6.341200
1123.636717	6.065900
1123.969083	6.057400
1121.854100	6.244200
1128.817750	5.859900
1121.216433	6.312400
1117.278367	6.570500
1123.901050	6.271500
1131.565900	5.824800
1124.895483	6.346600
1133.040250	5.864400
1125.646817	6.333200
1132.128267	5.942900
1131.022067	6.115400
1133.790383	6.017200
1131.200517	6.242600
1137.792550	5.862900
1130.253367	6.303500
1132.638567	6.179600
1131.220967	6.324500
1134.892517	6.151100
1130.346283	6.485800
1138.875483	6.039700
1130.215617	6.577700
1137.053550	6.200700
1136.232333	6.334900
1141.752183	6.133000
1141.028183	6.180400
1146.008833	5.866000
1145.282950	5.912400
1141.110967	6.293000
1141.764700	6.288600
1149.410200	5.902500
1148.361917	5.961500
1147.908750	6.006300
1148.978583	5.932000
1145.962967	6.243200
1150.837833	5.969800
1147.956333	6.195100
1146.066517	6.328700
1143.117083	6.520000
1152.283317	5.988200
1151.291783	6.104200
1156.850300	5.776500
1140.443500	6.754500
1155.155467	5.879000
1152.607717	6.134900
1156.359183	6.011500
1156.573333	5.991400
1161.080750	5.742600
1157.740917	5.953100
1146.595267	6.615200
1151.527633	6.396400
1165.808583	5.659300
1165.164800	5.711700
1158.093833	6.174700
1162.001733	5.956600
1160.538367	6.034400
1159.014667	6.166400
1166.080500	5.874300
1158.115950	6.356700
1170.661583	5.591500
1166.915033	5.817700
1160.451700	6.362700
1169.569267	5.847500
1170.103183	5.850700
1164.810367	6.132800
1156.674550	6.612900
1165.571017	6.091700
1166.783450	6.067800
1169.103683	5.959300
1167.646867	6.109400
1165.761517	6.237500
1173.130017	5.820200
1168.728450	6.072000
1166.967533	6.281800
1157.781450	6.897900
1162.196850	6.651300
1161.670933	6.734200
1165.685667	6.562700
1173.351850	6.219000
1176.608233	6.028600
1174.646917	6.151400
1173.381783	6.232000
1168.302733	6.543100
1175.828967	6.129500
1172.774667	6.479300
1179.958233	6.066100
1192.193717	5.388500
1179.342117	6.164900
1184.358067	5.848100
1180.725533	6.070300
1180.006467	6.259400
1178.913733	6.323200
1177.483000	6.439800
1188.862750	5.787900
1186.730933	6.009100
1189.537183	5.856100
1185.679550	6.156600
1193.060033	5.728900
1191.436467	5.816000
1189.814400	5.912700
1187.442617	6.142100
1195.947300	5.714700
1192.525367	5.925800
1187.470533	6.228700
1192.043267	5.993600
1199.618650	5.691600
1194.365383	6.029200
1191.153617	6.260600
1188.528567	6.414800
1192.767950	6.176700
1202.609250	5.598900
1196.549867	6.102200
1195.549133	6.190300
1192.469767	6.445100
1191.095350	6.513900
1196.622683	6.216100
1197.469017	6.170900
1199.627867	6.100400
1199.067967	6.150800
1202.899450	5.954700
1207.934483	5.655400
1206.134250	5.763600
1198.494333	6.224800
1205.980083	5.939800
1201.311250	6.231900
1202.303233	6.181600
1206.106583	5.980000
1204.054750	6.219600
1210.585983	5.899600
1216.235050	5.558700
1207.330000	6.117900
1215.863233	5.635300
1221.345400	5.396100
1211.506733	6.007300
1208.473683	6.233800
1210.361933	6.126100
1203.387817	6.587900
1204.626450	6.545400
1209.478850	6.264300
1210.826233	6.188800
1217.671300	5.860800
1215.146050	5.995200
1203.785833	6.712600
1211.719050	6.247500
1209.199933	6.520600
1211.436833	6.445600
1211.688850	6.513300
1216.994217	6.193700
1219.451467	6.048200
1221.276883	5.938300
1216.766733	6.309100
1218.298317	6.289700
1217.951750	6.368700
1222.529683	6.136300
1215.517417	6.564200
1223.736000	6.082500
1211.278533	6.840100
1225.176450	6.018000
1222.902767	6.176000
1209.926317	7.009100
1224.837083	6.154900
1224.814633	6.196600
1227.503733	6.042100
1235.533333	5.622700
1228.435500	6.043200
1225.416217	6.240500
1227.860033	6.090700
1239.430250	5.547600
1232.232350	6.014700
1219.491450	6.853200
1229.130383	6.284200
1226.625167	6.466100
1232.156750	6.133800
1236.694600	5.986800
1236.898867	6.027200
1237.865600	6.000300
1234.447583	6.236500
1224.456383	6.839800
1228.215800	6.630600
1235.903183	6.244000
1229.664167	6.714800
1232.448183	6.577000
1234.476850	6.463200
1234.449883	6.506500
1241.616317	6.180200
1246.477483	5.908900
1236.061333	6.573400
1238.226767	6.452000
1239.901483	6.338800
1239.595200	6.389100
1247.389767	6.085700
1248.095333	6.044200
1231.364500	7.105200
1240.204017	6.607700
1244.714483	6.345400
1239.556633	6.661600
1238.333117	6.882500
1239.264283	6.875500
1228.788267	7.551800
1248.492383	6.366400
1246.756900	6.583500
1245.062450	6.741900
1243.074550	6.897900
1247.307100	6.644400
1248.719033	6.586000
1250.980317	6.476300
1256.593883	6.196000
1251.973217	6.565100
1259.255383	6.151000
1258.804183	6.211300
1259.397533	6.182800
1257.168933	6.310300
1256.912583	6.328300
1254.752217	6.618200
1260.488967	6.289100
1257.059017	6.496100
1264.532233	6.041200
1261.951983	6.245800
1263.259917	6.158000
1265.733233	6.157900
1256.348967	6.720800
1263.181267	6.332900
1265.435800	6.201000
1261.687250	6.471300
1254.994100	6.897900
1258.481467	6.747200
1259.785983	6.716500
1271.947017	5.965700
1267.361650	6.231900
1257.949533	6.855100
1264.656567	6.593900
1269.139650	6.316200
1268.443567	6.397100
1266.095100	6.594000
1265.350800	6.753900
1260.153933	7.090900
1268.518400	6.634800
1273.440533	6.338200
1262.047767	7.043900
1265.289550	6.867300
1269.056783	6.784900
1275.873833	6.401800
1271.138167	6.692900
1268.060267	6.869900
1276.926083	6.479200
1275.239300	6.624300
1289.399950	5.810400
1276.307833	6.590800
1271.512117	6.888800
1270.758550	6.937200
1276.421483	6.686800
1270.829600	7.131600
1275.117817	6.903200
1278.835650	6.699300
1282.750850	6.492300
1276.570117	6.863600
1283.345267	6.521300
1287.278067	6.395300
1276.615400	7.051500
1283.856217	6.696500
1285.866600	6.564300
1282.631067	6.760700
1280.576667	6.932900
1281.055933	7.036000
1285.964967	6.764300
1292.744617	6.362900
1283.694917	6.935300
1288.356350	6.779700
1287.330717	6.854600
1302.082100	6.002400
1294.720033	6.446800
1296.868417	6.320300
1291.496517	6.644900
1292.101733	6.692800
1289.514217	6.855500
1294.545633	6.611200
1299.360617	6.328700
1292.744217	6.745400
1300.926433	6.296500
1284.543950	7.446900
1299.567350	6.531600
1298.380167	6.618200
1297.222500	6.710700
1306.523800	6.200700
1301.403217	6.595400
1300.109067	6.699500
1295.346967	7.018100
1303.512200	6.523800
1305.476583	6.434200
1302.276133	6.658600
1305.002100	6.623400
1305.905800	6.594000
1310.275433	6.365500
1304.406067	6.737300
1306.861700	6.581700
1310.401117	6.384500
1311.018033	6.387400
1305.619333	6.723100
1305.826783	6.735100
1307.951300	6.606300
1309.194050	6.656100
1312.174183	6.548200
1311.783250	6.583200
1317.079683	6.284200
1308.741533	6.788800
1308.744567	6.804200
1309.877283	6.883900
1318.062467	6.423800
1332.352350	5.558700
1314.758167	6.639800
1310.527017	6.951200
1306.406333	7.307500
1308.319717	7.192700
1311.836850	7.034700
1313.588233	6.957100
1316.732967	6.799100
1318.825717	6.710300
1316.976333	6.854200
1312.269667	7.155800
1326.842450	6.329700
1324.038267	6.519200
1319.101400	6.819600
1324.096217	6.555200
1326.763033	6.546700
1317.603850	7.132200
1327.765533	6.610000
1322.768300	6.939900
1327.178683	6.666700
1328.383700	6.612600
1319.643533	7.279000
1325.746533	6.992500
1310.738383	7.939900
1316.114983	7.658800
1330.071333	6.827200
1326.172500	7.064700
1331.152067	6.880400
1326.151483	7.140700
1324.487783	7.237900
1334.886900	6.659400
1330.246300	6.973200
1325.330900	7.415400
1329.669917	7.218200
1337.931950	6.785100
1335.859017	6.906200
1333.372350	7.062300
1346.770167	6.261500
1332.275583	7.168900
1338.856400	6.792000
1340.396867	6.770300
1340.858567	6.755900
1342.887017	6.639200
1334.359233	7.149400
1343.777833	6.700600
1340.790783	6.900700
1321.476150	8.057400
1330.866433	7.536700
1334.241067	7.518800
1343.569583	7.039600
1353.676917	6.505400
1345.654267	6.989900
1348.553317	6.869900
1345.145117	7.064000
1345.125633	7.105300
1347.501767	7.010900
1347.852867	7.013300
1345.436700	7.193700
1339.390517	7.566200
1345.123450	7.242600
1347.172467	7.140800
1347.840783	7.266700
1343.606400	7.567500
1349.966767	7.188500
1353.222617	7.016000
1353.970617	7.118000
1353.601733	7.158400
1362.356217	6.703400
1359.229400	6.891600
1356.693750	7.029900
1358.529717	6.917900
1351.566650	7.473900
1355.672800	7.302000
1358.547983	7.168900
1367.014250	6.653700
1358.162700	7.185900
1366.233483	6.691600
1360.534433	7.189900
1358.233700	7.328400
1355.030867	7.520300
1363.285800	7.046400
1352.921900	7.709100
1357.955050	7.493400
1362.677933	7.259500
1363.811150	7.245000
1362.274250	7.343700
1369.118983	6.963400
1368.475600	7.007100
1368.062683	7.147600
1363.539500	7.443900
1360.497133	7.693900
1361.370467	7.663700
1370.779750	7.132200
1376.704450	6.786000
1374.386600	7.090200
1375.637983	7.005700
1375.747083	6.997600
1375.814900	6.991200
1374.572883	7.200400
1386.373083	6.520900
1381.709500	6.842700
1377.369983	7.108900
1381.364717	6.851600
1377.806133	7.081000
1378.708417	7.085000
1378.890800	7.120500
1382.586133	6.933700
1382.079667	6.997100
1384.629617	6.872600
1385.323667	6.834800
1381.838317	7.075400
1381.997600	7.204800
1381.360717	7.274900
1385.663417	7.033700
1383.999717	7.167500
1378.261217	7.582100
1384.568233	7.215400
1381.601967	7.497800
1379.162867	7.643600
1388.752750	7.096200
1374.887533	7.939900
1377.560617	7.930700
1376.721750	8.042700
1383.962000	7.681200
1388.204100	7.442400
1394.106250	7.132200
1397.321517	6.922400
1397.009483	7.048300
1393.207900	7.312800
1412.320600	6.219600
1394.113800	7.315200
1392.222767	7.424300
1396.940050	7.185900
1396.447300	7.293600
1392.730050	7.573500
1393.617867	7.544300
1396.495567	7.393100
1402.776617	7.052000
1402.695117	7.204700
1399.950117	7.364600
1405.684667	7.032500
1405.520750	7.056900
1402.980283	7.282900
1411.392067	6.783200
1402.233850	7.364100
1403.713617	7.288100
1402.661233	7.371700
1403.024600	7.372800
1407.078833	7.140700
1407.874017	7.097000
1410.617800	7.088100
1412.701133	6.963700
1407.903383	7.279000
1407.379400	7.312500
1410.419333	7.156300
1411.556200	7.157400
1424.983433	6.408400
1412.596900	7.185300
1412.728367	7.204100
1416.218967	7.002800
1408.049983	7.534600
1404.713433	7.886200
1415.042633	7.310500
1400.754417	8.208200
1410.668850	7.626300
1414.261633	7.411600
1417.897267	7.226600
1417.125567	7.408100
1419.537883	7.271200
1414.708867	7.562300
1416.428933	7.476100
1415.220300	7.686900
1415.637967	7.707500
1415.321483	7.819300
1419.301017	7.586300
1420.355167	7.533200
1418.259333	7.663900
1414.594267	7.989500
1422.055050	7.634100
1432.610267	7.051100
1425.757033	7.497700
1428.731983	7.334800
1426.853183	7.452400
1425.688450	7.621500
1429.107183	7.506700
1432.984650	7.287600
1437.529267	7.000400
1438.158350	6.974100
1427.504117	7.646900
1432.367350	7.376700
1434.938417	7.278200
1438.347350	7.103100
1427.105233	7.783900
1434.267867	7.357700
1423.462917	8.058800
1435.095117	7.365800
1441.865600	6.999000
1433.137367	7.519400
1433.295983	7.656700
1433.681300	7.683600
1438.773950	7.449000
1441.411833	7.292800
1433.432550	7.770300
1439.010267	7.463900
1440.230533	7.486900
1438.610450	7.640400
1445.284833	7.300000
1441.040517	7.600700
1444.629050	7.407600
1446.834050	7.277100
1450.056733	7.133800
1451.634633	7.071100
1455.596183	6.843700
1453.039850	6.991200
1445.006733	7.519600
1443.759683	7.722700
1446.209133	7.614700
1453.707317	7.198400
1444.199083	7.811800
1445.735767	7.734800
1449.743900	7.518600
1453.411333	7.433500
1448.032883	7.781200
1451.601133	7.598500
1447.330600	7.852800
1452.705950	7.684200
1452.503700	7.727100
1452.034450	7.827600
1465.423933	7.039900
1457.907733	7.555300
1460.104567	7.430300
1455.460650	7.727100
1450.807600	8.020800
1449.787933	8.244100
1449.156800	8.328600
1462.183800	7.609500
1463.896667	7.490900
1453.080667	8.228900
1461.686417	7.815800
1468.983633	7.391800
1468.907333	7.419100
1468.499100	7.438500
1465.736550	7.611900
1459.844050	8.041500
1464.240300	7.896600
1463.442533	7.952500
1463.878650	7.986600
1462.644867	8.078900
1463.943483	8.002900
1467.895783	7.784200
1468.906583	7.871200
1466.419817	8.035100
1471.867033	7.720900
1469.835900	7.852800
1474.448033	7.720300
1466.630200	8.228700
1480.815283	7.452100
1477.576917	7.613300
1478.722300	7.537800
1485.231317	7.141400
1486.493250	7.168200
1477.209000	7.774500
1489.651500	7.069200
1476.177083	7.896700
1476.879967	7.856000
1474.086183	8.045500
1479.419400	7.782600
1480.754000	7.794300
1479.206800	7.919700
1481.760650	7.784700
1483.103817	7.723400
1489.979733	7.317700
1483.716067	7.696400
1487.405617	7.622600
1489.877933	7.491100
1490.013733	7.470700
1482.097283	7.961800
1487.911483	7.743700
1489.072533	7.706500
1494.171100	7.434300
1492.597617	7.521500
1491.831817	7.574900
1499.960200	7.113000
1491.681183	7.629400
1495.856467	7.438100
1487.318883	8.002900
1484.978300	8.157300
1490.050017	7.890500
1494.250683	7.673800
1499.393483	7.422700
1485.301200	8.369400
1491.660267	8.017100
1494.644517	7.860200
1503.318500	7.400400
1500.838117	7.604900
1493.285150	8.095200
1502.460883	7.606900
1498.628333	7.826800
1503.135700	7.569000
1500.501700	7.718100
1500.770683	7.753600
1501.645183	7.726600
1501.959500	7.767600
1505.071433	7.607500
1507.446733	7.470700
1500.912600	7.863000
1498.278683	8.195200
1510.870417	7.467200
1502.314817	7.997600
1506.869733	7.733800
1499.797433	8.229400
1505.498200	8.006100
1507.897100	7.906800
1511.439367	7.735400
1514.242717	7.562300
1514.913317	7.542500
1518.830317	7.348700
1512.101233	7.802800
1517.685867	7.515800
1510.716850	8.009400
1506.247050	8.281200
1509.523900	8.097900
1502.006533	8.579800
1521.192350	7.589400
1509.789400	8.288100
1518.491467	7.777700
1519.058633	7.757800
1523.230933	7.639600
1522.105167	7.736900
1520.761967	7.849400
1519.801967	7.919600
1520.034683	7.921000
1512.584567	8.386100
1519.818300	8.115600
1515.956233	8.387800
1525.982583	7.798300
1521.441000	8.064000
1521.328667	8.217200
1523.012833	8.170000
1537.852150	7.383900
1530.611367	7.803500
1525.155250	8.168100
1525.417700	8.168100
1524.461633	8.308600
1522.878500	8.520000
1537.146550	7.709100
1527.241400	8.330100
1531.374500	8.106300
1533.464750	7.987500
1534.541933	7.921000
1530.263700	8.216400
1537.402617	7.805300
1537.347167	7.851800
1538.403683	7.789600
1538.866417	7.768400
1539.053683	7.729000
1538.345550	7.861200
1536.605767	7.973600
1540.850883	7.734400
1536.294700	8.013300
1530.012717	8.506400
1531.793667	8.417900
1539.602117	7.966100
1542.132083	7.853500
1548.047133	7.627000
1543.811800	7.894500
1538.525567	8.266700
1540.159633	8.199100
1555.034217	7.397900
1539.637083	8.285500
1547.291383	7.846300
1548.466083	7.791700
1530.738933	8.905000
1541.485283	8.296600
1543.280733	8.254600
1553.301417	7.638500
1546.476883	8.117500
1549.593500	8.052000
1548.140650	8.172300
1550.101883	8.114200
1549.409583	8.161000
1552.573383	7.999000
1544.135850	8.504100
1547.507350	8.384700
1548.351050	8.360400
1539.093200	8.999400
1547.419583	8.523400
1538.386200	9.070200
1556.891333	7.992400
1548.766367	8.615300
1557.082550	8.175000
1551.112100	8.592000
1556.393650	8.277000
1561.704883	7.999600
1545.030133	9.025600
1548.412583	8.936500
1553.130883	8.677000
1552.471017	8.747600
1558.258967	8.437100
1562.300317	8.277800
1560.504700	8.500800
1559.741583	8.554000
1567.322417	8.157800
1565.689250	8.261400
1563.670517	8.404100
1558.321100	8.746200
1558.977300	8.847300
1565.131500	8.513100
1568.179017	8.405000
1568.575717	8.396600
1569.111733	8.373100
1567.472083	8.501500
1569.717917	8.466500
1568.783833	8.519500
1568.287067	8.566700
1574.325017	8.202800
1565.862567	8.776100
1567.205167	8.745200
1571.918217	8.544800
1572.679067	8.495900
1582.093917	7.997600
1580.461817	8.067800
1572.135417	8.602700
1573.907600	8.645100
1579.728833	8.335900
1580.921933	8.299600
1583.037650	8.167200
1583.450233	8.123200
1574.805983	8.671000
1582.411550	8.358600
1582.137683	8.393800
1588.287350	8.038500
1585.773967	8.196500
1591.722783	7.970200
1588.349550	8.199900
1583.259133	8.579800
1586.394100	8.394900
1582.803233	8.632300
1584.263133	8.544100
1581.894133	8.829100
1584.589250	8.741700
1591.522517	8.432900
1589.892900	8.521800
1589.020800	8.585700
1585.965600	8.787600
1594.878650	8.320200
1593.938033	8.488000
1597.051433	8.320600
1594.379883	8.480800
1589.870700	8.777400
1595.329950	8.570700
1596.934967	8.508500
1609.038500	7.822800
1598.856417	8.410400
1606.084083	7.980100
1603.725667	8.122400
1593.859167	8.800100
1598.314350	8.554500
1594.766317	8.808500
1602.873133	8.367100
1603.551583	8.336200
1609.421767	7.983200
1606.667033	8.304700
1605.754867	8.362700
1605.967650	8.376300
1612.302700	8.011500
1611.812317	8.153900
1608.002650	8.442900
1616.189617	8.008100
1617.527833	7.939300
1609.486883	8.414200
1602.805483	8.806000
1607.424350	8.622600
1614.605267	8.280200
1611.735383	8.457400
1615.473133	8.248300
1616.945233	8.205700
1618.529850	8.225400
1613.269967	8.545700
1617.799850	8.323500
1623.545183	8.005900
1611.221467	8.816900
1621.260100	8.229900
1615.995700	8.574000
1609.663100	8.963700
1621.010200	8.452200
1618.007917	8.646500
1609.151367	9.224900
1617.081433	8.765500
1623.246817	8.509700
1629.775783	8.169400
1632.790250	8.076300
1630.265767	8.215700
1625.623150	8.510400
1625.885817	8.510300
1628.752550	8.422500
1636.828283	8.035600
1631.300550	8.378100
1629.006800	8.533800
1627.803367	8.621000
1628.918700	8.574600
1634.275950	8.248500
1627.777433	8.801800
1626.773750	8.878800
1637.318933	8.259400
1634.600517	8.423300
1627.910000	8.958000
1630.051800	8.877600
1645.403267	8.027300
1640.236967	8.353700
1641.438233	8.296600
1637.889200	8.502900
1632.776183	8.916400
1642.880533	8.375800
1652.577967	7.898000
1645.695950	8.278200
1639.936533	8.646700
1638.975600	8.688600
1633.856783	9.057100
1637.800967	8.853200
1643.001783	8.558800
1638.830700	8.848200
1646.373717	8.455700
1650.166883	8.339200
1648.538833	8.478100
1654.919533	8.140000
1651.353350	8.361000
1655.556683	8.103400
1653.532367	8.251100
1650.352067	8.500100
1648.638783	8.620300
1659.219717	8.081000
1660.400017	8.012600
1647.201083	8.798500
1640.568283	9.228700
1652.979950	8.672700
1653.419150	8.674200
1657.284000	8.482800
1651.729700	8.809800
1650.196700	9.051900
1659.583917	8.535500
1665.837600	8.237100
1666.740500	8.158500
1661.326883	8.467900
1657.015217	8.710400
1657.201533	8.792800
1665.082950	8.379300
1666.173100	8.412000
1661.707017	8.658200
1659.141933	8.819500
1657.806483	8.916700
1669.128283	8.307100
1662.407100	8.814300
1663.115383	8.772400
1657.165900	9.121500
1664.882317	8.691200
1664.242483	8.872900
1660.741983	9.107800
1664.900017	8.920700
1664.374067	8.967200
1671.396400	8.559900
1666.893150	8.848200
1672.251533	8.666200
1677.860050	8.388900
1660.805867	9.458300
1674.355767	8.646800
1668.794550	9.009900
1678.945850	8.410200
1687.237600	8.023800
1679.325367	8.527400
1679.246783	8.579800
1678.176617	8.670500
1682.228017	8.453900
1678.813900	8.646000
1675.333067	8.909000
1674.711633	9.072100
1679.961217	8.788100
1678.121600	8.903700
1674.867950	9.151500
1677.501350	9.088200
1682.026400	8.847000
1685.817700	8.623500
1688.180733	8.520100
1679.573083	9.192400
1685.627700	8.849700
1690.827450	8.581800
1677.534217	9.401300
1682.227683	9.176500
1692.652767	8.568500
1691.500000	8.627700
1686.421417	8.952200
1687.184183	8.918500
1690.916900	8.691900
1675.530050	9.624600
1686.794567	8.951900
1685.554950	9.252000
1706.366100	8.098500
1697.858000	8.653200
1698.531033	8.621800
1688.598333	9.248200
1697.465317	8.729300
1692.693800	9.066300
1697.698983	8.893300
1696.129350	9.024600
1695.691817	9.115700
1698.542733	8.943700
1699.098300	8.924700
1691.840050	9.356100
1706.368233	8.678200
1706.603350	8.684100
1698.215483	9.169600
1701.412517	8.998700
1692.048350	9.695400
1697.962417	9.380300
1692.856317	9.744200
1701.718117	9.247100
1702.141183	9.207100
1701.152533	9.285100
1702.695167	9.327800
1715.463017	8.573300
1721.841967	8.251100
1705.127833	9.259000
1714.407333	8.694400
1717.391800	8.521200
1709.124433	9.064300
1710.740967	9.069800
1714.090050	8.879400
1714.924067	8.844200
1715.685867	8.810600
1707.816317	9.409100
1714.316783	9.050500
1716.259800	8.967000
1718.038700	8.857800
1721.049850	8.646900
1713.811933	9.093100
1725.856117	8.533100
1722.350800	8.775900
1731.443267	8.252000
1726.663000	8.547600
1716.633667	9.167900
1718.743083	9.061600
1723.543067	8.840000
1722.526300	8.922900
1727.935233	8.620300
1719.575883	9.127300
1719.611217	9.248900
1722.827233	9.101200
1737.676600	8.279100
1731.722700	8.663100
1726.150833	8.995900
1732.963033	8.596900
1729.955617	8.835800
1730.131700	8.928900
1727.414683	9.129700
1730.597533	8.990200
1731.982200	8.918100
1735.799433	8.696500
1736.113533	8.703400
1724.480967	9.461600
1723.509867	9.546500
1727.632367	9.329000
1722.892200	9.639300
1728.357183	9.338800
1727.796917	9.395900
1730.103500	9.468600
1727.816617	9.633200
1728.977583	9.584500
1742.321067	8.798600
1731.569917	9.602600
1734.918317	9.461600
1750.818033	8.605000
1744.335417	8.983100
1737.094400	9.434700
1746.984067	8.846000
1745.861617	9.018500
1745.394883	9.090700
1736.632450	9.698700
1753.028083	8.708500
1753.953633	8.633800
1755.380133	8.567200
1752.673983	8.792200
1749.644317	9.077300
1749.937167	9.087500
1748.461717	9.200300
1745.650933	9.378700
1751.026533	9.209200
1749.429983	9.328300
1756.353150	8.959800
1758.868950	8.797500
1756.900167	8.932100
1747.910717	9.477800
1756.621517	9.129500
1758.948300	8.982900
1749.549283	9.565900
1753.551250	9.353400
1751.547483	9.609700
1756.211767	9.428300
1761.008433	9.230200
1761.008450	9.213300
1754.691717	9.581600
1768.403333	8.783200
1761.065417	9.278900
1762.883783	9.226900
1763.759033	9.198700
1766.597967	9.040100
1766.507633	9.072100
1770.744633	8.809900
1766.250017	9.144800
1769.360150	9.060300
1772.525900	8.896500
1766.846033	9.243100
1766.047583	9.312400
1763.919300	9.582000
1766.109833	9.514900
1772.568933	9.190300
1772.253200	9.228600
1767.419967	9.532100
1773.090117	9.193100
1771.956333	9.416500
1766.893367	9.758900
1776.193733	9.260200
1770.026450	9.647400
1769.172967	9.733700
1768.281000	9.791100
1778.440033	9.218200
1779.236033	9.208600
1781.044517	9.125300
1773.992317	9.570800
1777.888883	9.362500
1781.667250	9.129900
1783.049433	9.100600
1786.630550	8.975400
1784.799633	9.075100
1786.652333	8.941300
1787.354283	8.938900
1782.848617	9.311000
1785.740917	9.168200
1774.984717	9.877400
1780.855700	9.533100
1780.074600	9.612000
1775.161900	9.924000
1774.789833	10.103500
1790.083733	9.238600
1795.162867	8.984300
1790.308350	9.295800
1791.990400	9.193200
1791.568783	9.203200
1794.302367	9.205700
1791.605267	9.372500
1801.515300	8.755500
1796.247483	9.090100
1799.775783	8.936500
1796.130050	9.168600
1792.459067	9.419000
1792.467250	9.447900
1790.776350	9.558900
1790.633400	9.603600
1793.522483	9.496300
1794.807933	9.544900
1792.555683	9.722500
1792.637900	9.761700
1795.450317	9.616100
1794.319183	9.718600
1794.001967	9.765200
1798.359233	9.594700
1797.404033	9.682000
1793.335183	9.951400
1791.815833	10.054900
1799.215900	9.791100
1797.621200	9.907200
1801.794100	9.722100
1803.336567	9.634100
1798.628100	9.943500
1809.230850	9.303600
1804.916917	9.727700
1811.296600	9.370800
1811.253867	9.389600
1814.504750	9.211500
1811.541283	9.515500
1804.392350	10.008900
1809.799083	9.758200
1818.800667	9.238100
1810.700733	9.739000
1816.385733	9.424300
1821.540450	9.184200
1822.766150	9.204600
1818.483033	9.496900
1822.726017	9.281900
1824.694067	9.161300
1818.065367	9.559100
1818.929517	9.520400
1827.259750	9.170700
1828.486550	9.120000
1827.568100	9.235800
1827.820933	9.219700
1817.511650	9.852600
1816.510617	9.926900
1823.530483	9.605200
1819.178633	9.856600
1828.175367	9.332600
1830.192900	9.207000
1823.740567	9.765200
1828.374233	9.523900
1813.679883	10.432000
1826.861467	9.668000
1825.796533	9.880600
1822.717633	10.111300
1834.581117	9.478700
1829.684567	9.779600
1823.661033	10.184800
1829.619267	9.839300
1832.019883	9.733000
1835.362450	9.518700
1830.400383	9.870100
1839.286783	9.475000
1845.685667	9.091400
1843.200317	9.230900
1838.807683	9.504700
1843.440767	9.373400
1847.098050	9.163800
1842.777167	9.450500
1843.940150	9.375600
1843.790867	9.399800
1843.102933	9.481000
1845.814383	9.458500
1842.565067	9.672500
1843.114417	9.684800
1850.140567	9.287900
1845.279150	9.577500
1845.461767	9.559400
1850.643817	9.434000
1840.914217	10.022900
1841.724050	9.988500
1846.469050	9.709500
1852.767900	9.453300
1848.544700	9.768300
1846.108267	9.970100
1845.030550	10.063200
1862.228167	9.083300
1865.650717	8.835500
1855.591667	9.420800
1855.390117	9.467300
1848.848917	9.947000
1854.184317	9.788000
1852.703500	9.883200
1850.966733	10.021900
1855.827500	9.756900
1847.501150	10.321800
1855.755367	9.851300
1858.225667	9.715100
1861.029867	9.544100
1866.999983	9.307300
1861.581267	9.649100
1859.166233	9.865900
1861.526667	9.729500
1866.535417	9.440000
1861.235417	9.772400
1865.359050	9.679200
1867.489000	9.595500
1863.331867	9.879200
1868.246133	9.616000
1858.940417	10.170800
1862.822983	9.978700
1866.064717	9.809600
1856.451733	10.395100
1861.328233	10.142800
1865.172183	9.991300
1868.636933	9.823300
1872.735183	9.573700
1870.289150	9.768900
1869.815117	9.920300
1875.024433	9.638500
1870.952567	9.884600
1865.847050	10.217700
1862.911100	10.562400
1867.422383	10.315900
1868.839617	10.314200
1871.711817	10.167800
1879.612383	9.707500
1879.659767	9.699200
1881.843567	9.688700
1875.726367	10.087400
1877.544117	10.042100
1883.397167	9.691100
1882.834250	9.750300
1882.740117	9.778400
1875.017400	10.300200
1874.195650	10.385400
1888.138367	9.571100
1880.689683	10.041400
1876.837017	10.380800
1881.580300	10.176900
1879.928550	10.293900
1888.412650	9.831600
1891.499700	9.668100
1884.200100	10.122600
1883.283800	10.188300
1889.549733	9.973000
1891.336983	9.894100
1889.006850	10.112400
1888.384433	10.175800
1883.281783	10.505800
1885.732800	10.390200
1888.381883	10.397200
1889.286733	10.360900
1900.996450	9.664800
1895.016117	10.035800
1894.401867	10.162700
1897.585150	9.991800
1900.467350	9.852600
1899.469817	9.934400
1894.899467	10.212800
1894.829967	10.242800
1904.554433	9.707500
1907.343983	9.544300
1897.958150	10.101600
1894.908417	10.313000
1891.691900	10.593900
1897.838283	10.369900
1894.639700	10.598700
1902.327717	10.198100
1906.926467	9.953300
1906.810700	9.975000
1899.413050	10.430100
1906.786600	10.138500
1903.523750	10.390200
1907.448767	10.213400
1906.386767	10.288100
1906.939783	10.270600
1906.196983	10.330000
1916.212133	9.880000
1920.865200	9.639300
1913.044433	10.153300
1907.193567	10.508900
1916.272300	9.972000
1915.345100	10.021800
1915.252017	10.075700
1915.862917	10.076000
1916.066000	10.065900
1916.114167	10.115900
1921.503400	9.805200
1915.794933	10.195300
1915.516933	10.296700
1914.158617	10.487000
1919.551633	10.190500
1921.159417	10.097600
1923.980350	9.962100
1926.110100	9.962700
1924.006983	10.111300
1928.683583	9.879700
1929.041333	9.840100
1926.357200	10.024800
1927.199417	9.977600
1919.733667	10.496000
1919.574750	10.530900
1927.493083	10.068100
1931.804433	9.828100
1927.309533	10.223200
1926.007383	10.365700
1922.928250	10.614900
1926.845600	10.398300
1930.674850	10.188300
1920.668850	10.821600
1927.703767	10.532300
1933.965167	10.234100
1933.873067	10.262000
1931.947417	10.451300
1941.430367	9.915500
1936.927717	10.197200
1937.256583	10.214800
1946.736867	9.790400
1950.610750	9.588300
1944.700750	9.942600
1938.090483	10.353400
1939.920367	10.394000
1948.401933	9.899800
1939.372183	10.510000
1942.678050	10.325700
1948.829633	9.967000
1949.989067	9.920600
1943.532933	10.463800
1946.754300	10.289100
1959.967983	9.481900
1959.459550	9.498600
1947.931783	10.376200
1949.633483	10.275700
1955.438400	9.977400
1948.071967	10.438400
1948.137067	10.496900
1953.375433	10.195300
1954.070617	10.164500
1960.311117	9.779600
1954.798750	10.224600
1960.366050	9.952500
1969.209367	9.440000
1962.660583	9.836500
1957.334033	10.195300
1961.225550	10.003200
1954.473450	10.425300
1955.252350	10.411200
1959.125783	10.187200
1958.376250	10.228500
1959.779767	10.148900
1964.811683	9.969700
1960.988883	10.207300
1960.420450	10.279200
1955.287550	10.596000
1952.580767	10.820900
1961.371400	10.346700
1966.799183	10.192300
1959.982317	10.620800
1962.949767	10.454900
1965.499833	10.320400
1958.182250	10.892400
1969.919767	10.277000
1976.154483	9.961000
1974.510650	10.061400
1961.317267	10.850900
1967.200200	10.513500
1969.690433	10.446100
1965.046300	10.816800
1971.808567	10.454000
1967.993667	10.700600
1962.770900	11.033700
1970.486067	10.575500
1978.838567	10.140200
1978.628100	10.279200
1981.107533	10.157800
1979.275850	10.270200
1973.118167	10.696400
1974.221650	10.738800
1974.948967	10.712300
1975.795133	10.747000
1968.520917	11.203100
1969.499150	11.170800
1975.708600	10.812600
1990.259267	10.103900
1991.332500	10.073700
1986.917467	10.340600
1988.842900	10.243500
1992.793667	10.121000
1988.497983	10.426600
1985.471217	10.659500
1982.167217	10.882100
1982.810883	10.873600
1980.603967	10.991900
1983.223700	10.871100
1995.218083	10.207000
1995.144900	10.221900
1988.124383	10.661500
1983.457333	10.960300
1995.942650	10.249800
1994.651700	10.344900
2001.974900	9.964500
1985.335367	10.959500
1997.430517	10.271900
1997.170383	10.299400
1999.952033	10.260700
2002.305333	10.132300
2005.490933	9.978100
1997.021750	10.500900
1999.562983	10.356700
2001.350867	10.261100
1992.181517	11.003000
2002.708233	10.402000
2004.348517	10.302500
2001.753450	10.473600
2009.643567	10.182200
2005.581400	10.431000
2009.598383	10.233700
2005.685050	10.485300
2014.979250	9.985500
2011.573267	10.200500
2010.121317	10.280000
2013.588517	10.082300
2008.586750	10.541400
2012.030400	10.361400
2015.673733	10.142800
2011.049867	10.423400
2017.875350	10.099500
2013.916733	10.453300
2013.476333	10.514500
2016.422667	10.405100
2007.649767	10.940900
2014.783300	10.541400
2018.173450	10.368000
2023.377900	10.169700
2016.539567	10.649000
2016.246483	10.717900
2024.381283	10.244200
2016.126867	10.752500
2019.745900	10.545900
2017.974667	10.719800
2006.318017	11.445500
2021.463000	10.592400
2022.631283	10.534900
2026.380817	10.444400
2026.787233	10.476400
2018.313317	11.015600
2017.298500	11.094300
2013.360700	11.384100
2024.496933	10.715200
2026.395550	10.681800
2029.108283	10.601800
2027.595667	10.734800
2030.083033	10.637200
2031.924533	10.517500
2030.041783	10.652200
2027.995267	10.818500
2030.276883	10.835200
2030.672333	10.841200
2030.869950	10.830300
2036.364833	10.536700
2039.638050	10.475400
2028.143550	11.199300
2040.300667	10.535600
2036.048733	10.775500
2043.832267	10.323800
2041.949183	10.451200
2043.750417	10.451600
2046.873650	10.311300
2043.879650	10.530900
2037.982450	10.887600
2041.735700	10.675200
2044.857683	10.489600
2046.186200	10.593900
2049.008167	10.449800
2053.134583	10.210000
2041.243600	10.949700
2049.324167	10.535600
2053.306317	10.425500
2056.099317	10.291400
2055.942650	10.328100
2041.493600	11.223300
2050.679667	10.669400
2044.768000	11.020200
2046.426033	10.941400
2047.028900	10.961700
2054.237000	10.708500
2053.083517	10.805900
2056.626150	10.585200
2062.366650	10.246800
2053.785767	10.882400
2059.015617	10.591100
2055.880617	10.800800
2061.162867	10.501100
2061.781300	10.605900
2061.020200	10.713000
2062.532583	10.683100
2068.289967	10.332800
2069.800050	10.257000
2063.931083	10.608100
2072.100000	10.291800
2061.157867	10.953200
2060.010517	11.034500
2065.023967	10.765700
2071.705283	10.514500
2075.978200	10.312800
2074.096633	10.446100
2064.858183	11.038000
2061.969467	11.247500
2064.165317	11.108600
2061.438983	11.299900
2061.165333	11.367100
2065.627067	11.124500
2072.288417	10.839200
2063.343833	11.400700
2071.625500	10.947900
2076.920567	10.628900
2074.685417	10.891100
2074.244750	10.919100
2080.375200	10.610400
2078.179533	10.757800
2078.704667	10.731500
2075.481050	10.944900
2075.157167	11.126300
2074.456883	11.184400
2078.928267	10.953200
2077.444433	11.033200
2078.761733	10.993300
2085.533183	10.637800
2074.972817	11.296700
2082.090967	10.939400
2090.001800	10.505100
2086.098983	10.740100
2083.976117	10.928000
2094.032317	10.438400
2082.086433	11.180500
2089.355617	10.790000
2087.738250	10.899600
2086.273933	11.014300
2091.268317	10.713800
2092.211500	10.801200
2088.434283	11.061100
2093.014100	10.845600
2087.674000	11.170800
2092.807700	10.880400
2086.922467	11.237300
2092.957833	11.092900
2095.412467	10.949900
2096.622450	10.909200
2089.006950	11.358300
2097.208767	11.013500
2100.047917	10.875800
2099.603233	10.905100
2101.200850	10.828200
2103.252650	10.898100
2105.560950	10.746000
2110.055483	10.516300
2109.888917	10.535900
2104.732983	10.875400
2108.833433	10.673500
2105.045883	10.903300
2098.503567	11.317700
2108.141117	10.835900
2100.011717	11.433800
2102.196367	11.343500
2101.382317	11.423600
2108.921583	10.993300
2103.342133	11.465200
2111.568600	11.015700
2123.345917	10.377500
2111.310450	11.106600
2116.360933	10.821700
2114.589167	10.932800
2118.117300	10.847400
2115.762867	11.033900
2116.853817	10.992500
2115.352417	11.081300
2116.982233	10.987300
2110.331833	11.399800
2120.029617	10.982000
2115.260817	11.296100
2123.502533	10.835200
2120.710467	10.989200
2119.395167	11.159600
2118.836050	11.266500
2120.962650	11.175300
2130.462117	10.652900
2122.136233	11.149900
2120.276667	11.279000
2120.008867	11.362100
2119.548350	11.484900
2118.454883	11.573500
2122.055100	11.425200
2118.376400	11.633100
2116.654450	11.760000
2121.941017	11.458400
2128.712633	11.220400
2132.696917	11.001500
2129.655350	11.208900
2121.187050	11.728200
2126.018400	11.579100
2127.470733	11.566000
2129.886483	11.466700
2135.963400	11.127600
2129.704317	11.519300
2135.165450	11.196000
2130.703900	11.649900
2136.691200	11.311800
2137.621533	11.254000
2130.182267	11.713700
2141.848000	11.090700
2134.576250	11.624700
2138.338083	11.454100
2148.213183	10.896100
2140.968767	11.344400
2148.026050	10.972800
2146.813667	11.054000
2148.590133	10.954300
2143.351500	11.259300
2134.874183	11.828800
2133.396133	11.931400
2147.488300	11.104800
2143.828800	11.343900
2147.011033	11.259400
2146.575083	11.294500
2137.394900	11.851500
2145.642233	11.385100
2141.545017	11.826500
2152.236217	11.195300
2153.795417	11.168900
2150.388167	11.402900
2143.896350	11.851200
2155.459333	11.178400
2149.417000	11.566800
2154.227917	11.296100
2148.220733	11.667400
2147.593900	11.739900
2142.025667	12.261800
2145.317350	12.123300
2159.421067	11.322200
2167.624867	10.882400
2149.797267	11.968100
2151.357883	11.943100
2150.491500	12.015300
2158.092917	11.567600
2153.876917	11.830700
2159.823350	11.639400
2157.904417	11.780000
2153.072567	12.086600
2153.529667	12.070400
2155.028867	12.164900
2159.301317	11.953400
2162.636100	11.831700
2164.545867	11.738000
2175.578233	11.080900
2169.060683	11.500600
2166.403250	11.734200
2174.183800	11.358000
2166.042133	11.870200
2164.946817	11.969300
2168.364233	11.768800
2173.894483	11.431900
2175.277767	11.397800
2174.491233	11.556100
2168.271067	11.951600
2173.119233	11.704600
2176.294433	11.536600
2175.685033	11.563600
2181.580417	11.231900
2173.772267	11.838500
2167.149050	12.227700
2173.931433	11.856700
2173.462500	11.868900
2174.975217	11.861300
2182.139067	11.477000
2194.988750	10.775400
2180.766117	11.622800
2186.023550	11.333400
2181.416267	11.609000
2188.016350	11.367900
2193.974683	11.057200
2183.004650	11.771400
2181.868250	11.841000
2182.983417	11.802200
2183.227883	11.802100
2188.939167	11.642900
2180.542617	12.143300
2190.541300	11.569500
2185.500967	11.887400
2191.089950	11.629800
2192.667500	11.647800
2195.742767	11.476700
2201.450117	11.185400
2190.445667	11.848100
2197.211350	11.454900
2192.361900	11.769600
2194.378833	11.709100
2188.264217	12.087200
2198.961017	11.541500
2194.906700	11.792700
2199.136033	11.541700
2190.415667	12.080000
2198.697033	11.793700
2197.186117	11.900300
2201.893667	11.630900
2200.007150	11.759100
2209.526200	11.337600
2206.663033	11.550700
2203.680900	11.781900
2206.512583	11.629900
2199.861500	12.054600
2199.261517	12.089000
2203.200967	11.900600
2202.959200	11.989800
2211.815550	11.508300
2214.208383	11.410900
2209.704033	11.706700
2208.116100	11.810100
2213.664800	11.547000
2209.791333	11.916400
2214.778333	11.621200
2209.937133	11.939800
2214.499367	11.685500
2215.286600	11.766300
2211.819433	11.999500
2207.265983	12.336100
2212.808933	12.040600
2209.270367	12.266000
2209.361700	12.282000
2222.207617	11.664500
2216.206717	12.063800
2226.756650	11.491800
2223.191283	11.715700
2226.129533	11.543200
2227.467733	11.461600
2229.756867	11.377400
2221.909433	11.878900
2235.778317	11.134100
2223.230600	11.876100
2229.908417	11.489300
2222.791033	11.921500
2231.919750	11.569500
2221.336283	12.214600
2222.351567	12.194000
2223.347717	12.197600
2227.147717	12.054200
2226.584100	12.197400
2233.422717	11.802200
2232.583850	11.880000
2233.442950	11.842200
2234.179617	11.925500
2236.044167	11.838200
2236.932267	11.860100
2241.993217	11.557100
2238.434333	11.758300
2236.016483	11.912500
2242.901483	11.477500
2230.089283	12.217600
2247.328367	11.273600
2237.948417	11.867300
2243.923650	11.533800
2235.810333	12.021100
2235.737667	12.107900
2238.391517	11.988500
2236.803350	12.177900
2240.004267	12.018200
2248.872100	11.527500
2237.966267	12.185300
2240.492167	12.100100
2237.997833	12.329200
2237.147567	12.426800
2242.275733	12.184300
2237.378167	12.512900
2244.257800	12.138000
2243.244517	12.212600
2248.421267	11.931800
2249.060250	11.933100
2253.083000	11.913000
2248.329067	12.219200
2252.878733	12.016600
2253.325883	12.023200
2252.895917	12.084800
2251.862517	12.145700
2255.193567	11.965700
2254.050700	12.044100
2247.722067	12.488900
2249.250617	12.440900
2255.629233	12.126700
2255.091100	12.169800
2252.136833	12.370000
2248.872283	12.574300
2256.462967	12.301100
2253.181267	12.527000
2251.423367	12.668300
2262.420067	12.021200
2268.518667	11.777000
2266.030217	11.955500
2261.956467	12.250400
2261.801117	12.305600
2260.991900	12.366000
2260.997817	12.384200
2270.195000	11.850300
2271.951950	11.740800
2267.848433	12.010000
2268.595233	12.122800
2269.036167	12.120200
2275.229350	11.789100
2274.023167	11.866400
2268.202683	12.246100
2269.811167	12.159500
2270.617150	12.129900
2269.255417	12.237500
2265.136217	12.563600
2267.710983	12.437200
2272.853900	12.167400
2274.206000	12.092100
2270.517033	12.324700
2277.352300	11.918100
2267.316633	12.657400
2279.659967	11.978000
2278.753000	12.114900
2282.655817	11.888600
2287.746483	11.585800
2287.886550	11.584500
2281.031617	12.100700
2277.228833	12.432700
2277.431450	12.459600
2277.908217	12.445100
2288.108083	11.870800
2285.453483	12.037300
2277.690883	12.546400
2278.882433	12.540100
2286.870067	12.070400
2290.204267	11.916500
2285.246250	12.206700
2290.159317	12.002000
2286.194767	12.272300
2290.602700	12.107100
2297.200567	11.720900
2291.293233	12.082900
2295.782200	11.814000
2284.275783	12.689800
2286.364583	12.610300
2289.248450	12.477900
2289.863067	12.469100
2296.829933	12.176500
2296.229233	12.301300
2302.284550	11.988000
2289.489217	12.801500
2297.053183	12.352900
2302.533400	12.033000
2299.796783	12.224200
2299.858867	12.297200
2303.153000	12.105900
2295.873700	12.561600
2297.343750	12.492600
2302.183683	12.343000
2299.811250	12.508800
2304.700483	12.264100
2297.478533	12.703900
2301.153200	12.528000
2305.034383	12.314200
2300.147467	12.764000
2301.254367	12.768500
2300.659567	12.915200
2301.446183	12.886300
2305.436500	12.674400
2311.220250	12.339300
2310.703367	12.500600
2321.080600	11.934000
2326.124533	11.716300
2311.954083	12.605500
2304.953700	13.080000
2313.718467	12.553100
2320.060983	12.205600
2318.284500	12.361800
2308.977700	12.938400
2312.945383	12.755500
2315.791600	12.604200
2313.318767	12.772100
2320.672717	12.354200
2320.112533	12.407200
2316.217067	12.656600
2331.497067	11.952800
2316.953500	12.857100
2327.175033	12.301000
2319.723400	12.778800
2320.845050	12.762000
2320.302883	12.808000
2318.684333	12.935800
2321.359100	12.777300
2329.301667	12.369200
2330.842100	12.301500
2334.116967	12.293300
2332.453383	12.390100
2330.973700	12.500400
2334.781200	12.287700
2332.166667	12.587000
2333.694250	12.514200
2338.961350	12.198900
2333.380333	12.532600
2331.754617	12.758600
2330.881533	12.878200
2331.540967	12.847700
2328.132267	13.095800
2326.727533	13.182700
2329.477483	13.035100
2325.008350	13.332600
2333.892150	12.947400
2335.775967	12.859700
2335.512133	12.952000
2336.187350	12.918900
2339.134800	12.774000
2332.193817	13.216400
2333.926633	13.280800
2335.339033	13.236100
2338.108100	13.120200
2345.130100	12.715500
2353.127233	12.324700
2337.954917	13.250000
2340.938833	13.098400
2342.290767	13.032800
2342.685100	13.017900
2341.750267	13.060400
2350.198100	12.733800
2348.975417	12.831500
2339.708300	13.373700
2353.270017	12.604700
2361.200967	12.216800
2354.858200	12.697800
2356.904200	12.613200
2357.031083	12.647800
2357.526833	12.646000
2351.962933	12.982600
2351.775333	13.004500
2352.301500	13.113600
2366.266850	12.312600
2357.192500	12.897900
2360.509250	12.687000
2362.435717	12.564800
2362.865417	12.548300
2359.489017	12.882200
2366.842833	12.465700
2365.329483	12.557800
2364.754567	12.597500
2366.841350	12.621300
2364.388867	12.819200
2361.866800	13.054800
2370.761533	12.548500
2373.058117	12.417200
2374.113100	12.351000
2362.516083	13.190200
2366.243367	12.981500
2372.815350	12.632400
2375.307800	12.492600
2367.196767	13.047500
2377.772967	12.543800
2377.387350	12.598800
2371.532817	12.987500
2381.285867	12.445400
2380.454017	12.524000
2380.518000	12.521400
2376.533017	12.767300
2380.615733	12.510100
2376.973083	12.914500
2376.483067	12.962000
2379.252583	12.816700
2383.063250	12.603600
2388.195583	12.418300
2377.326167	13.155800
2395.981983	12.062500
2382.370883	12.888100
2386.596167	12.669200
2386.278083	12.684700
2385.048250	12.885600
2390.622300	12.612300
2391.007200	12.655200
2385.535017	12.972800
2389.204900	12.765300
2392.013883	12.607300
2393.759917	12.566900
2387.233217	13.066400
2393.787350	12.691200
2401.256467	12.257900
2393.096400	12.829800
2396.814483	12.712900
2398.731817	12.635600
2398.849500	12.647700
2394.787617	12.909800
2399.655650	12.623400
2402.349600	12.488100
2399.161483	12.756400
2404.011750	12.476400
2407.915500	12.257400
2396.034283	12.991300
2415.274733	11.997700
2405.337333	12.611500
2396.989067	13.165700
2404.730083	12.722200
2407.099133	12.593500
2408.746183	12.511300
2415.581733	12.234100
2412.814933	12.480400
2407.634033	12.886000
2397.030117	13.538300
2405.316717	13.084400
2402.003967	13.296800
2410.554750	12.864300
2413.719700	12.768600
2411.906583	12.892000
2409.259783	13.061800
2416.195417	12.698300
2418.201217	12.659000
2417.169167	12.750800
2425.491400	12.299400
2420.687400	12.583200
2413.458533	13.055200
2426.341050	12.296100
2425.889783	12.472600
2417.212417	12.997700
2422.270800	12.796800
2422.874833	12.762100
2421.837650	12.828900
2419.315400	12.978600
2420.979733	13.024900
2423.799817	12.909800
2416.955983	13.307800
2427.075017	12.713600
2423.551533	12.939100
2424.215067	12.937100
2418.920517	13.347500
2429.027517	12.760700
2425.010967	13.010300
2423.279233	13.146700
2430.909717	12.725000
2432.986933	12.628300
2432.916467	12.657800
2426.564700	13.107300
2430.086250	12.927900
2435.942883	12.582100
2435.820350	12.601800
2436.334867	12.751700
2433.563650	12.968400
2429.849150	13.269900
2429.761283	13.282000
2437.139783	12.906400
2437.721917	12.903200
2436.060117	13.138400
2435.164017	13.252100
2447.176217	12.595700
2443.307917	12.825800
2436.613733	13.251400
2436.568567	13.255100
2435.994367	13.469900
2442.803900	13.094700
2448.593033	12.791500
2443.479633	13.082800
2440.752000	13.369200
2451.700733	12.776500
2445.397217	13.174400
2444.939200	13.264500
2458.474833	12.491800
2449.453967	13.036700
2445.204567	13.328600
2461.533500	12.437100
2461.387150	12.454800
2447.791100	13.249500
2449.320900	13.186500
2454.320500	13.030800
2456.372833	12.967900
2449.641700	13.437600
2452.203283	13.313200
2460.364733	12.873700
2454.564467	13.220900
2456.215383	13.282000
2467.583350	12.635400
2457.416183	13.343800
2460.485700	13.158000
2460.044317	13.186700
2461.179817	13.140200
2462.692033	13.110700
2468.778950	12.816600
2459.982100	13.373700
2462.632083	13.250500
2463.119850	13.246500
2468.879133	12.908200
2476.193983	12.530200
2468.666083	13.074100
2465.229600	13.299000
2464.006150	13.403100
2470.195433	13.078300
2477.755483	12.783700
2470.440017	13.247900
2467.454250	13.495800
2474.811667	13.068200
2471.235300	13.273200
2473.231483	13.164700
2479.161133	12.962200
2467.939017	13.658300
2481.704650	12.931800
2476.103167	13.271600
2468.759533	13.712500
2471.602350	13.559100
2476.405500	13.457700
2475.916267	13.510700
2473.416567	13.672700
2471.775683	13.798600
2475.734917	13.659800
2485.253317	13.166900
2480.782667	13.489100
2476.098433	13.780000
2480.395550	13.560300
2479.680800	13.603800
2488.971333	13.121200
2491.960750	13.041300
2491.407100	13.096800
2486.728967	13.427000
2493.641583	13.030000
2489.277817	13.316600
2479.519133	13.908700
2489.842617	13.478600
2495.431467	13.149500
2486.172300	13.706400
2488.839433	13.555300
2490.818800	13.488300
2502.545050	12.825300
2486.329717	13.824800
2492.689583	13.459300
2495.586650	13.304100
2495.637850	13.327800
2508.582350	12.742200
2499.150717	13.330400
2499.052800	13.363200
2498.831083	13.395400
2492.903800	13.832700
2502.154500	13.415700
2500.621383	13.545100
2506.333600	13.252800
2505.561583	13.310800
2503.699200	13.485900
2510.259517	13.117100
2510.520083	13.117000
2500.661033	13.723900
2502.156933	13.703800
2508.689700	13.368000
2509.074450	13.373700
2504.196517	13.673900
2500.098283	14.049400
2506.620517	13.710800
2527.536217	12.526700
2518.622717	13.065800
2507.642867	13.715000
2520.109533	12.970300
2516.584833	13.306900
2515.816133	13.360600
2517.307000	13.286700
2516.976233	13.325200
2515.339967	13.552100
2516.119183	13.572400
2521.437133	13.271500
2512.719467	13.782800
2506.839717	14.270600
2518.508600	13.574400
2515.413800	13.800000
2528.193167	13.091600
2525.921333	13.238200
2520.014483	13.626100
2524.068483	13.392100
2517.372483	13.786600
2521.228650	13.581900
2518.896033	13.781200
2515.418700	14.030100
2523.924667	13.548800
2512.160117	14.295200
2527.709167	13.541000
2519.361217	14.069900
2528.521883	13.625500
2532.863250	13.352100
2526.805217	13.718000
2528.461917	13.627400
2532.426317	13.550900
2539.965067	13.146200
2533.593683	13.625500
2541.653167	13.130600
2534.694033	13.573600
2540.209033	13.251400
2528.872717	14.097500
2533.429417	13.850000
2538.561750	13.557300
2543.355417	13.294100
2541.030867	13.514900
2542.052467	13.489100
2548.038383	13.175200
2546.677900	13.276200
2541.634417	13.606100
2546.241883	13.357300
2542.324300	13.644900
2539.873467	13.892300
2546.038633	13.582000
2540.868933	13.908700
2542.198850	13.851000
2543.162750	13.818600
2544.226383	13.798600
2564.218500	12.775800
2555.330150	13.303500
2547.053050	13.789800
2551.671167	13.523000
2558.038017	13.281200
2553.074883	13.602400
2550.655133	13.809100
2552.921833	13.692100
2556.402783	13.488400
2549.633800	13.899600
2555.467300	13.719900
2556.985617	13.650200
2563.057750	13.274100
2563.422167	13.292300
2560.607467	13.559900
2567.018400	13.263600
2561.582617	13.605200
2560.168017	13.705700
2560.273900	13.715700
2565.566567	13.449800
2563.984600	13.552800
2566.697100	13.415700
2563.113550	13.662600
2575.840833	13.034200
2573.240550	13.196100
2560.068317	13.981100
2563.682967	13.796300
2566.920133	13.756300
2577.102517	13.202600
2575.343200	13.363200
2567.731750	13.849800
2568.722983	13.801900
2574.859283	13.451800
2573.395950	13.719900
2578.662533	13.408000
2585.920983	12.971200
2577.098133	13.500400
2583.734783	13.190200
2576.163817	13.638200
2587.266050	12.959400
2575.800333	13.675300
2569.042383	14.275900
2573.654250	14.031300
2585.174350	13.417200
2585.760767	13.427600
2585.568767	13.489100
2593.855417	13.046600
2590.450250	13.238700
2587.679583	13.395400
2585.124517	13.580000
2584.065033	13.788700
2577.448267	14.245100
2586.572950	13.760100
2579.700200	14.204100
2588.823567	13.661600
2586.711417	13.806200
2586.534400	13.893000
2582.830550	14.151600
2584.805817	14.072600
2588.153567	13.916000
2588.322917	14.022800
2593.280550	13.773000
2605.405400	13.122000
2594.797867	13.755500
2591.153133	13.986700
2600.537483	13.440400
2604.417017	13.379000
2600.774717	13.634000
2595.047283	14.005600
2602.692367	13.570400
2606.196333	13.432900
2607.541350	13.464900
2599.109000	14.025600
2601.271933	13.933900
2602.057983	13.919200
2596.942467	14.241200
2608.836083	13.557700
2612.394617	13.465100
2610.177633	13.617100
2613.167450	13.528800
2613.623933	13.498300
2610.944733	13.667500
2613.952283	13.503100
2610.118400	13.812600
2612.067883	13.737400
2608.899833	13.969000
2608.220850	14.003700
2613.776867	13.714700
2614.246250	13.702200
2604.260300	14.543400
2624.068183	13.359400
2609.616983	14.242300
2617.236550	13.795200
2617.879900	13.830600
2612.152917	14.301800
2620.524517	13.816400
2622.705433	13.700200
2622.701617	13.714700
2619.679783	13.908100
2619.217833	13.984300
2619.533817	14.162300
2626.619850	13.747200
2621.216817	14.121200
2622.431983	14.077900
2621.324950	14.152500
2621.312983	14.163700
2624.931083	14.172100
2622.710967	14.308700
2623.633033	14.290600
2630.191300	13.923600
2630.305467	14.046800
2637.567133	13.652800
2626.583650	14.368500
2629.838950	14.198400
2630.204683	14.225200
2626.597717	14.448200
2632.364200	14.239200
2640.467700	13.786800
2639.343383	13.908700
2635.417400	14.169000
2639.243433	13.937800
2640.595917	13.867400
2642.930317	13.845800
2642.079283	13.928500
2642.077717	13.940900
2646.048050	13.719900
2643.369583	13.956700
2642.844433	14.073100
2636.595600	14.470800
2631.879667	14.801900
2640.679367	14.302100
2647.473400	13.893000
2643.303667	14.168600
2642.030083	14.373400
2644.373217	14.275100
2650.676933	13.928500
2645.426683	14.237200
2646.524467	14.192000
2650.561900	13.955100
2648.968283	14.233900
2651.046450	14.104800
2656.712917	13.763600
2655.629233	13.834000
2659.253950	13.772400
2655.058217	14.069000
2655.058967	14.121200
2649.975667	14.424500
2656.971000	14.034000
2649.121217	14.495600
2645.865250	14.803500
2651.523567	14.566700
2662.606150	13.908000
2660.858850	14.013000
2655.021617	14.420300
2653.595033	14.548000
2657.792500	14.359800
2654.748767	14.589800
2653.155267	14.725400
2659.294967	14.384000
2660.677000	14.367300
2668.486433	14.007700
2670.340867	13.918400
2664.698017	14.336000
2669.812750	14.034000
2666.810433	14.223400
2660.508717	14.628800
2663.167283	14.590600
2670.431500	14.211000
2677.166683	13.847500
2670.282067	14.282000
2673.385417	14.145800
2671.712900	14.253000
2669.380750	14.500200
2666.538233	14.730100
2674.394500	14.310000
2667.362700	14.743500
2662.871450	15.030300
2670.855633	14.578900
2674.432850	14.375100
2677.890567	14.181500
2677.052600	14.307300
2681.344250	14.219700
2678.376317	14.434700
2681.870250	14.279400
2682.639733	14.257900
2683.635833	14.249200
2683.087783	14.290300
2681.330833	14.404900
2685.714717	14.147600
2678.173033	14.732500
2684.556283	14.400400
2676.575667	14.952500
2678.692383	14.816500
2682.754950	14.598300
2680.291617	14.747900
2680.901283	14.884300
2691.356067	14.282300
2684.975950	14.674500
2683.687733	14.760400
2686.692017	14.631800
2683.521300	14.847900
2681.037950	15.037800
2685.949150	14.793000
2682.473633	15.036400
2689.985967	14.585300
2704.332017	13.805300
2704.710550	13.880100
2695.304100	14.463900
2700.876917	14.171000
2693.456467	14.636900
2694.829850	14.575200
2699.399817	14.344100
2706.784383	14.041300
2703.647700	14.246700
2697.783267	14.617700
2701.283300	14.439300
2704.271583	14.335900
2704.382150	14.362800
2708.737650	14.201100
2702.768983	14.572900
2706.427733	14.365600
2706.548883	14.374000
2717.106333	13.923400
2706.529683	14.579500
2702.564233	14.823100
2706.748933	14.603500
2712.651617	14.414900
2710.686233	14.569600
2718.896300	14.119500
2706.222000	14.909700
2716.314717	14.318600
2719.508950	14.134800
2719.047400	14.183400
2715.936300	14.422200
2717.276550	14.410500
2716.566950	14.581500
2713.681400	14.727600
2720.591667	14.330600
2719.635117	14.421200
2720.687650	14.515200
2725.421950	14.260500
2709.003733	15.289900
2715.348433	14.949100
2721.423583	14.602900
2720.422233	14.668000
2721.649300	14.706000
2721.170350	14.724300
2720.171200	14.804700
2722.769600	14.678700
2725.536183	14.599000
2722.577150	14.775900
2726.014283	14.584600
2723.367483	14.753200
2732.817200	14.368200
2731.198383	14.489200
2729.200567	14.659100
2728.439550	14.727600
2726.709650	14.847600
2725.195600	14.957700
2724.595350	15.010200
2734.974650	14.402400
2732.697167	14.589200
2733.913333	14.636500
2737.294467	14.458700
2729.083550	14.966700
2730.563617	14.920700
2734.417333	14.765800
2736.321150	14.669700
2744.104733	14.306200
2741.115483	14.517100
2739.819567	14.605700
2742.358583	14.458000
2748.119700	14.261700
2742.097100	14.651100
2742.447150	14.733900
2739.400033	14.921800
2746.689067	14.506700
2737.154300	15.096600
2753.842117	14.150000
2745.621517	14.633600
2746.965133	14.761000
2746.805500	14.794200
2748.672783	14.865700
2744.407617	15.179900
2748.517283	14.964400
2749.777033	14.945500
2754.767133	14.661400
2759.653517	14.386700
2748.907217	15.053600
2756.701000	14.654100
2758.681467	14.543000
2758.975400	14.556300
2757.510517	14.657900
2759.560017	14.563400
2755.259617	14.831000
2756.196183	14.993200
2761.457617	14.708600
2760.367800	14.770800
2766.077717	14.442800
2758.117350	15.059700
2755.122300	15.297900
2766.551650	14.710200
2771.583967	14.423900
2762.966150	14.936700
2759.986200	15.118800
2768.242883	14.777800
2765.589633	14.971900
2770.855550	14.724900
2774.218983	14.523400
2777.929367	14.300600
2769.729017	14.798300
2766.449517	15.087800
2768.307350	15.089400
2762.201883	15.492700
2768.516500	15.130200
2775.216050	14.796300
2776.455433	14.760400
2770.660317	15.159500
2778.399317	14.758400
2777.197983	14.840800
2782.719067	14.514200
2780.904050	14.702700
2778.669050	14.953800
2772.193133	15.372100
2778.488017	15.083600
2782.337283	14.876200
2780.466550	15.018000
2784.536267	14.782400
2783.169817	15.024500
2790.469150	14.625000
2788.927233	14.740900
2792.846900	14.500500
2790.302167	14.767700
2792.525250	14.671200
2791.922417	14.806400
2788.731083	15.000400
2792.733617	14.792000
2787.756533	15.103900
2791.338250	14.950500
2790.672050	15.042900
2788.957133	15.169600
2790.503767	15.125600
2782.979650	15.608100
2786.099000	15.434700
2786.848117	15.437000
2786.848183	15.601300
2786.026450	15.698700
2789.133750	15.591900
2794.466450	15.296700
2797.375350	15.129900
2792.678150	15.430500
2801.678267	15.092000
2803.328300	15.029700
2801.761717	15.140600
2803.611650	15.038400
2799.055967	15.405800
2809.532767	14.774900
2808.690883	14.852800
2803.023667	15.204200
2802.032417	15.349400
2809.061850	14.958300
2802.397667	15.371600
2812.429100	14.786400
2805.802033	15.232900
2811.091667	14.972300
2803.835600	15.441000
2809.229017	15.133400
2816.295783	14.730400
2813.315817	15.023300
2809.661800	15.279600
2814.718700	14.993700
2819.584767	14.730200
2814.295600	15.216000
2820.058200	14.936100
2822.309167	14.864300
2819.174150	15.039900
2819.953800	15.000600
2826.308167	14.633300
2818.848467	15.236600
2824.983067	14.907200
2818.772900	15.366000
2811.785533	15.817300
2815.980550	15.596100
2826.999567	14.954900
2818.907483	15.482200
2821.776333	15.317500
2835.770733	14.713000
2828.408967	15.160100
2839.397100	14.533500
2838.821600	14.604600
2830.602217	15.125600
2829.733717	15.221900
2818.251767	15.932600
2825.158017	15.531200
2822.310133	15.766300
2830.533833	15.426100
2832.841783	15.328600
2830.999600	15.496500
2833.274483	15.399700
2847.433350	14.578200
2839.813450	15.020700
2840.032867	15.083600
2832.535000	15.522600
2844.230100	14.858700
2832.043850	15.588000
2840.678733	15.148300
2838.611750	15.293400
2839.178467	15.313700
2837.798150	15.455700
2829.719850	15.964800
2834.606183	15.708400
2839.838867	15.440300
2838.147550	15.548400
2842.348767	15.520700
2840.354833	15.685000
2848.563567	15.226700
2852.799783	14.983000
2854.137567	15.083600
2841.093900	15.872100
2852.649267	15.218600
2849.652800	15.402000
2852.062300	15.357000
2855.743267	15.257300
2851.063433	15.552400
2851.732050	15.538200
2852.584350	15.493500
2857.708817	15.216800
2853.978417	15.449000
2853.637867	15.643100
2853.250000	15.699000
2854.961400	15.654000
2861.553083	15.264700
2862.991283	15.187300
2853.847067	15.746000
2860.721700	15.474000
2861.748000	15.479100
2858.877417	15.683300
2860.422250	15.593400
2871.061983	14.982700
2869.836867	15.041600
2862.326933	15.705100
2856.558533	16.076500
2869.533367	15.366800
2868.585417	15.412700
2870.411367	15.429800
2869.576100	15.572700
2869.180983	15.641500
2871.794533	15.533500
2871.066600	15.566100
2877.937400	15.162900
2874.201017	15.404300
2867.672683	15.856600
2871.304583	15.649300
2866.871350	15.921900
2867.256283	15.919300
2873.751500	15.607500
2868.732250	15.946800
2875.935567	15.570800
2878.803867	15.433700
2874.407817	15.708800
2878.983167	15.444500
2882.881100	15.369300
2885.597417	15.236900
2887.462517	15.179300
2886.667433	15.249400
2883.373350	15.449400
2885.789083	15.307600
2876.933517	16.006700
2890.145350	15.236400
2874.799167	16.200800
2882.351700	15.759600
2893.462133	15.171700
2891.604550	15.394800
2888.682000	15.610500
2894.563350	15.300900
2886.791550	15.785700
2886.813217	15.768500
2886.372117	15.889700
2887.946617	15.936800
2897.013017	15.432200
2896.775583	15.540400
2894.056567	15.710000
2898.676017	15.454400
2892.868417	15.805700
2907.280167	15.104600
2898.262083	15.659200
2886.696950	16.364700
2897.578183	15.716800
2897.811350	15.830400
2902.546367	15.583400
2908.626883	15.305200
2901.972000	15.703200
2907.557683	15.385900
2909.761883	15.258700
2904.417517	15.713000
2907.956867	15.532700
2906.445267	15.643100
2894.342367	16.406000
2904.328033	15.924100
2912.490633	15.504400
2913.591200	15.441900
2913.227933	15.490600
2908.937900	15.746400
2915.160683	15.375100
2908.538967	15.775100
2911.863217	15.635600
2908.899350	15.837300
2918.280950	15.470700
2917.103283	15.545800
2919.254067	15.450800
2918.261933	15.513700
2920.920500	15.510000
2921.699883	15.515200
2918.819383	15.748000
2909.963583	16.301800
2911.334717	16.251500
2920.464983	15.715600
2913.169250	16.288200
2925.475983	15.621400
2930.153733	15.403600
2922.971317	15.845000
2920.674833	16.006000
2929.074767	15.517400
2935.304567	15.317900
2926.244150	15.884100
2922.978683	16.090600
2927.734983	15.824500
2920.772383	16.332700
2926.145350	16.074300
2929.588283	15.899200
2928.468800	16.025700
2928.474433	16.037500
2931.677117	15.866600
2931.998933	15.873400
2937.199067	15.701900
2931.625733	16.033600
2940.944817	15.542300
2931.523933	16.124500
2942.883250	15.488100
2926.027000	16.505400
2937.656150	15.993900
2940.215367	15.880100
2936.584800	16.162800
2943.229267	15.758000
2941.653383	15.913600
2944.359250	15.795000
2948.697600	15.576600
2942.455350	15.947100
2949.217367	15.550400
2937.150967	16.278200
2942.018817	16.053500
2943.929183	16.036900
2937.015633	16.468300
2942.269733	16.180900
2947.782733	15.955900
2953.939383	15.669700
2953.792450	15.689400
2943.985100	16.360800
2949.242667	16.084700
2957.855000	15.576600
2955.932400	15.691200
2948.293933	16.250800
2952.359500	16.035600
2955.845733	15.868000
2956.291950	15.840600
2952.071300	16.145400
2958.779283	15.752500
2960.083767	15.833300
2955.569300	16.125300
2975.430500	15.022800
2957.172550	16.117200
2956.918900	16.137900
2953.983100	16.333200
2957.371883	16.280200
2961.250833	16.114900
2961.963600	16.101900
2958.361633	16.320100
2965.717150	15.904500
2960.031533	16.285600
2958.128383	16.436800
2966.643883	16.098700
2966.161283	16.162600
2969.434500	15.976800
2966.514017	16.171400
2969.648967	16.130600
2970.635433	16.123600
2971.701200	16.127400
2973.770817	15.988400
2967.217167	16.414100
2975.259600	15.966900
2980.865217	15.795200
2978.325650	15.953700
2972.324350	16.318800
2977.141983	16.045900
2976.820883	16.189300
2977.940300	16.206600
2964.285283	17.087200
2977.231050	16.330800
2995.686700	15.251400
2984.586433	15.900700
2975.999467	16.496000
2982.595883	16.213900
2992.068000	15.693600
2988.464800	15.937200
2988.312783	15.961000
2979.718817	16.490600
2978.868117	16.578800
2978.735367	16.655600
2995.357017	15.674300
2989.987583	16.004500
2995.978283	15.675700
2992.887917	15.925100
2990.865450	16.060500
2978.963050	16.877400
2983.750050	16.587900
2977.170000	17.022900
2989.866783	16.294000
2993.815217	16.202300
2989.628883	16.499800
2993.743250	16.358100
2999.895400	16.020900
2990.855183	16.599400
2996.870283	16.242400
3000.033250	16.094700
3000.824800	16.092000
3004.022033	15.920200
2997.963183	16.317100
3004.465083	15.950800
3004.645533	15.959500
3000.722717	16.231100
2998.488167	16.527500
3009.629600	15.904500
3012.879617	15.737900
3005.501983	16.207900
3005.243567	16.327700
3007.346783	16.210000
3012.054533	15.955600
3001.597817	16.602200
3007.200633	16.423300
3014.873033	15.971500
3009.799900	16.291800
3013.630550	16.078500
3013.472517	16.209500
3013.514233	16.210000
3015.679300	16.117500
3014.414767	16.221800
3015.120133	16.284700
3023.037367	15.884600
3012.061200	16.541700
3017.845900	16.230300
3022.833617	15.964100
3016.427417	16.388300
3016.055933	16.438600
3014.132283	16.671100
3019.846133	16.362100
3020.325983	16.340800
3014.094933	16.752400
3019.434200	16.596000
3023.976267	16.359500
3021.404150	16.541700
3021.654150	16.541700
3025.033200	16.348200
3028.766267	16.155200
3026.886733	16.424800
3016.719817	17.052500
3029.863217	16.296500
3025.392700	16.594200
3029.486533	16.477000
3024.804900	16.822200
3043.934467	15.700400
3039.600500	15.954300
3037.513367	16.086500
3029.374967	16.583000
3026.033783	16.906600
3029.792017	16.752800
3024.150000	17.139600
3029.608850	16.855800
3028.100217	16.979000
3038.406517	16.385000
3038.700650	16.388700
3036.521867	16.601900
3032.408733	16.876000
3032.366600	16.887900
3029.249717	17.164400
3032.867150	17.079300
3037.083233	16.850800
3043.962067	16.495400
3043.641100	16.536900
3041.276017	16.689500
3048.367933	16.294300
3059.078567	15.798800
3050.879133	16.310200
3043.409750	16.848000
3035.070033	17.368000
3042.130767	16.959500
3046.929867	16.706300
3035.143800	17.584200
3046.506833	16.946200
3053.919750	16.541700
3055.660000	16.444500
3050.502283	16.812400
3053.771217	16.656500
3061.906350	16.248000
3054.591783	16.695100
3043.477183	17.370400
3058.152700	16.509600
3057.002550	16.638000
3054.270517	16.932800
3056.767250	16.815900
3060.359917	16.639400
3061.176167	16.602200
3062.103150	16.537800
3054.288950	17.038200
3047.630600	17.597700
3061.430233	16.801300
3068.441550	16.409400
3060.236450	16.920300
3067.368900	16.647300
3065.077100	16.824900
3061.793833	17.083000
3074.151450	16.359600
3063.190083	17.034700
3061.119017	17.159300
3066.124750	17.018400
3074.680783	16.550800
3082.101983	16.178800
3074.690367	16.650800
3073.431400	16.725300
3067.862100	17.089200
3075.099383	16.768600
3065.946150	17.365800
3074.415500	16.879800
3076.838300	16.749600
3081.035483	16.573900
3081.175150	16.694100
3081.015000	16.726500
3074.571783	17.180200
3076.642567	17.063600
3078.617700	16.967400
3076.078050	17.141100
3081.991583	16.931200
3082.900067	16.891400
3088.232233	16.651300
3086.980300	16.725300
3093.345200	16.356600
3091.112483	16.473100
3081.776183	17.084200
3086.887300	16.785000
3088.109617	16.708400
3090.168450	16.573200
3091.288217	16.646000
3083.276733	17.179600
3092.278700	16.723500
3091.261050	16.780200
3083.313033	17.269600
3089.401517	16.937300
3100.464833	16.393000
3095.150350	16.812900
3089.175733	17.197300
3093.910450	16.896300
3096.835767	16.809200
3095.061867	17.013200
3097.449900	16.932600
3095.583850	17.096400
3096.767233	17.051200
3092.154117	17.334800
3092.349217	17.347400
3098.170850	17.075400
3092.484233	17.451700
3104.474000	16.787400
3103.126833	16.893100
3100.494850	17.040300
3100.544517	17.056400
3102.155483	17.119300
3109.696067	16.740200
3105.222383	17.016100
3110.416733	16.743100
3109.574617	16.880900
3108.224300	16.968300
3104.026250	17.354700
3112.476333	16.946200
3112.845467	16.991000
3110.758183	17.129200
3107.102500	17.350800
3106.212700	17.428800
3119.389750	16.723200
3119.321833	16.854700
3112.595467	17.265500
3113.303700	17.234100
3117.168683	17.109100
3123.543567	16.837100
3122.195933	16.923100
3116.770633	17.270800
3122.578050	16.926900
3132.740833	16.330300
3123.732067	16.888700
3124.271333	16.978600
3121.153067	17.197700
3125.596983	16.981300
3127.041267	16.907300
3133.563350	16.513200
3131.964333	16.611100
3126.992300	17.080200
3132.439917	16.759100
3129.331917	16.982300
3133.887200	16.717800
3129.425167	17.104100
3124.203667	17.480300
3132.664883	17.066200
3128.903800	17.322900
3137.618617	16.800200
3131.874200	17.171100
3133.222317	17.265500
3137.194200	16.998300
3138.568683	16.947100
3139.432250	16.911300
3133.733117	17.327600
3138.522967	17.157800
3136.971517	17.286500
3132.910367	17.587700
3135.628767	17.470100
3134.073017	17.581700
3137.557700	17.415000
3149.644983	16.836700
3143.226950	17.266800
3144.436867	17.278400
3142.394217	17.396300
3148.797533	17.026900
3142.436667	17.417600
3134.186250	18.108900
3134.909350	18.093600
3143.459850	17.608200
3149.874667	17.237600
3146.555800	17.515200
3151.380967	17.240600
3148.475683	17.412400
3146.881200	17.565000
3152.144267	17.255000
3153.019650	17.202600
3155.248800	17.103300
3152.688550	17.313300
3151.229367	17.420600
3151.532933	17.435500
3152.752000	17.418300
3156.226917	17.348000
3145.628567	18.001400
3149.302283	17.865400
3147.469783	18.002800
3153.913150	17.707200
3149.079933	18.004300
3155.573733	17.649700
3161.630167	17.301500
3155.988350	17.830800
3153.343333	17.997400
3165.675433	17.264200
3163.626367	17.406800
3164.756383	17.502400
3168.962267	17.306300
3165.248683	17.594200
3162.914683	17.746900
3159.708867	17.947400
3168.276700	17.461800
3171.163117	17.329400
3174.679150	17.133600
3172.997967	17.286500
3174.429383	17.209000
3171.815000	17.369700
3174.759633	17.207200
3171.910067	17.445800
3171.198167	17.625200
3176.820500	17.302200
3175.209700	17.405400
3171.537817	17.640200
3180.736600	17.251500
3172.074500	17.784000
3175.776683	17.668300
3177.908300	17.568900
3177.266567	17.638400
3182.468817	17.344700
3184.036717	17.306900
3182.983350	17.413200
3180.319433	17.635300
3186.875867	17.268500
3188.748883	17.184400
3178.878217	17.783900
3195.150783	16.974400
3194.809100	17.019900
3193.920883	17.118700
3186.506233	17.575600
3188.028567	17.634200
3192.722183	17.434000
3196.548400	17.272500
3193.664217	17.463500
3193.994350	17.464800
3193.142733	17.521000
3194.323633	17.545000
3202.458083	17.162500
3196.186067	17.575700
3198.413533	17.507500
3203.000400	17.231100
3203.255983	17.238400
3201.169717	17.367800
3195.800617	17.851400
3198.064150	17.722500
3197.449933	17.798800
3198.650167	17.768300
3195.088467	18.159800
3205.796133	17.524300
3197.405050	18.080700
3208.339050	17.466600
3207.673267	17.515400
3202.511200	17.829600
3201.948300	17.953500
3202.034350	18.005400
3210.184933	17.667100
3215.706200	17.329200
3213.379450	17.471400
3208.503400	17.791200
3211.745933	17.776000
3212.929467	17.702600
3217.668067	17.407100
3221.876867	17.176400
3214.224600	17.673600
3214.844633	17.777200
3216.374933	17.714800
3216.569567	17.742200
3210.949017	18.085100
3222.828333	17.380900
3224.695867	17.306000
3213.267950	18.065400
3218.132167	17.810300
3209.506683	18.380500
3221.196900	17.689500
3217.400783	17.932600
3221.663800	17.718300
3225.391267	17.703200
3214.547200	18.390600
3227.577267	17.633600
3222.904800	17.922000
3225.470667	17.899100
3216.646167	18.493400
3225.531933	18.059800
3226.551200	18.013800
3243.205467	17.013800
3230.696800	17.756100
3231.061667	17.876600
3230.050717	18.003500
3238.489800	17.527800
3235.111683	17.792500
3238.624317	17.592200
3235.997917	17.770400
3232.101217	18.042800
3229.192550	18.343800
3238.747817	17.795300
3236.678217	17.911400
3235.810200	17.975400
3237.215250	18.051000
3240.036800	17.933100
3235.230183	18.253900
3235.639733	18.246700
3237.307533	18.168700
3235.484250	18.288300
3234.769200	18.492900
3241.968567	18.104000
3237.272700	18.485400
3227.935850	19.048800
3236.166900	18.620100
3246.439067	18.008900
3247.042417	18.085700
3251.769600	17.863500
3244.390583	18.373300
3251.366650	17.964900
3250.183733	18.059500
3239.537633	18.721300
3239.991050	18.776100
3248.652433	18.345400
3256.357000	17.907000
3245.227283	18.572200
3254.126083	18.077800
3252.149850	18.241800
3259.256417	17.843900
3253.482233	18.201400
3251.151667	18.371000
3252.546683	18.305800
3255.335100	18.206400
3258.520850	18.189300
3256.247283	18.340000
3258.609500	18.210900
3256.709167	18.353000
3252.534950	18.612600
3259.975233	18.180400
3258.403133	18.290500
3260.451400	18.206100
3260.147750	18.507900
3270.405433	17.955100
3267.579700	18.146100
3268.135200	18.157200
3266.187133	18.278500
3268.926033	18.120700
3273.226450	17.863500
3273.808917	17.856800
3263.131183	18.507100
3265.330567	18.382400
3262.527117	18.961400
3276.515783	18.173500
3272.007883	18.475600
3279.003667	18.078500
3273.415467	18.505100
3271.461050	18.713100
3281.528867	18.122900
3280.957700	18.165300
3278.666717	18.363200
3282.571650	18.250200
3273.500350	18.811800
3278.707117	18.524900
3286.017817	18.128600
3280.870233	18.608200
3288.013683	18.190300
3284.059750	18.429900
3285.167817	18.366200
3285.026400	18.525600
3288.449183	18.382300
3289.975167	18.321500
3281.826350	18.838200
3290.463183	18.334900
3282.978833	18.779200
3285.986900	18.774300
3290.081967	18.617000
3295.580400	18.299100
3289.486417	18.676700
3295.908683	18.314500
3297.522267	18.227300
3292.876350	18.501300
3294.592217	18.420500
3299.822100	18.327300
3300.831683	18.396700
3298.836967	18.542900
3303.675950	18.277500
3297.753583	18.715600
3302.997233	18.507700
3303.157917	18.524300
3310.626600	18.146700
3297.937350	18.907200
3299.848917	18.815600
3312.612267	18.069500
3310.113233	18.357100
3309.088333	18.439600
3313.391683	18.212800
3310.626033	18.369100
3317.339667	17.969000
3311.128250	18.340800
3316.708700	18.139200
3315.911483	18.198400
3318.027283	18.077500
3313.997167	18.336200
3321.450350	18.024300
3319.319050	18.202800
3327.210283	17.748100
3320.603717	18.181100
3313.807467	18.625700
3312.381400	18.715800
3314.445333	18.701800
3318.467400	18.571800
3323.714950	18.295800
3318.356900	18.656100
3317.398000	18.750600
3316.268233	18.836200
3312.886133	19.075900
3318.571633	18.914200
3319.440100	18.903600
3331.521717	18.272600
3334.574567	18.087200
3327.650800	18.494700
3323.577150	18.756900
3326.674433	18.679600
3331.789533	18.377500
3333.204833	18.334000
3326.644950	18.752100
3327.421867	18.852800
3336.748233	18.370900
3334.262167	18.566300
3328.712217	18.945800
3336.672500	18.450900
3337.492983	18.438400
3334.594783	18.726100
3334.075500	18.850200
3338.774767	18.577700
3337.431867	18.724400
3339.085517	18.650900
3334.742883	18.910000
3340.716083	18.565300
3339.533767	18.839000
3339.585150	18.858600
3338.450200	18.957300
3344.907950	18.578700
3344.807750	18.623700
3343.201700	18.760800
3351.016617	18.399800
3347.164233	18.651700
3339.275000	19.128600
3343.815450	18.861900
3354.210317	18.369200
3345.443117	18.965600
3348.830867	18.845300
3347.235550	18.960300
3354.411700	18.567900
3347.965650	18.960300
3349.090300	18.963000
3349.181400	19.060500
3358.450183	18.544000
3354.686367	18.747200
3351.719067	18.962300
3359.014583	18.648400
3358.500167	18.706700
3350.618867	19.218200
3353.037833	19.090000
3356.489883	18.894100
3355.981033	18.944800
3356.961950	18.956700
3356.502983	19.018300
3356.268700	19.110300
3362.627900	18.776700
3352.179917	19.447400
3365.377350	18.659400
3361.794383	18.993400
3364.720900	18.864300
3357.073550	19.399200
3369.293750	18.685200
3362.211717	19.132700
3372.045167	18.538100
3372.314950	18.611400
3368.051483	18.943300
3373.609783	18.658600
3372.617083	18.725500
3379.934967	18.400700
3377.626883	18.593200
3374.635217	18.802700
3364.336083	19.470700
3367.651533	19.312600
3374.361183	18.943900
3378.337867	18.746600
3384.857517	18.436100
3377.784383	18.881800
3376.770983	19.025800
3378.422300	18.946200
3378.203133	18.974800
3376.459433	19.093600
3380.500417	19.001600
3386.417717	18.663500
3393.063183	18.286600
3388.965067	18.542000
3388.480267	18.706400
3391.228983	18.607000
3383.146317	19.176500
3387.781017	18.940400
3387.439450	18.989400
3385.563033	19.116400
3386.641383	19.109500
3385.932367	19.173500
3393.720150	18.797100
3392.539983	18.854500
3389.452967	19.067000
3385.062933	19.364800
3391.048600	19.051500
3386.083767	19.527200
3393.499083	19.120900
3395.298617	19.004600
3389.568850	19.395000
3393.227517	19.346300
3405.756233	18.618700
3403.361883	18.822100
3394.644800	19.342500
3390.438483	19.627600
3399.085917	19.143200
3405.882917	18.902000
3392.181133	19.743400
3398.912233	19.381000
3404.478433	19.076800
3408.183500	19.038300
3408.751767	19.030100
3406.819717	19.220900
3407.041567	19.222700
3403.222017	19.474700
3400.031467	19.696100
3413.495083	18.981700
3416.532733	18.843400
3404.864400	19.678200
3409.367083	19.403200
3422.369183	18.608200
3405.625250	19.650000
3414.506667	19.153700
3414.455467	19.263500
3419.696583	18.981400
3406.706583	19.782400
3414.270067	19.337300
3413.524000	19.383900
3419.158717	19.079600
3430.683400	18.555000
3417.842967	19.337300
3418.195733	19.341400
3425.671167	18.912500
3423.120133	19.243900
3431.637933	18.741400
3430.431217	18.881000
3431.355350	18.825000
3430.754050	18.988500
3434.243417	18.811400
3434.662500	18.811800
3436.555567	18.738800
3425.111917	19.457900
3429.024383	19.279600
3426.204950	19.461900
3434.315917	18.987200
3432.451517	19.115600
3428.630083	19.389100
3425.040250	19.617900
3431.102967	19.292900
3431.148767	19.333700
3427.460633	19.703800
3433.466983	19.404700
3440.960767	19.029800
3439.892150	19.089300
3434.578633	19.422100
3435.945067	19.357100
3440.178783	19.259200
3433.622217	19.702700
3448.890167	18.881600
3439.536283	19.459900
3436.815800	19.642800
3437.525617	19.617500
3450.582983	18.862600
3448.753950	18.968400
3446.027083	19.412500
3445.935300	19.391100
3444.559100	19.517400
3438.912050	19.905300
3462.379250	18.573300
3456.719150	18.929100
3452.505233	19.146700
3447.194200	19.497900
3448.973617	19.502900
3449.686517	19.553000
3458.061283	19.076800
3455.216667	19.305800
3454.806750	19.349100
3454.516050	19.373400
3462.297333	18.931300
3461.674367	19.133600
3457.341267	19.422500
3463.215833	19.066300
3461.789867	19.165100
3452.870133	19.787200
3452.632383	19.851700
3456.604917	19.638500
3460.188150	19.443600
3461.549717	19.399700
3464.391883	19.228600
3464.336767	19.234400
3464.998433	19.204900
3456.572433	19.963000
3463.608750	19.565100
3462.386917	19.658900
