#Y dist(nm)	Y force(pN)
0.000000	-0.015400
-21.251300	1.215800
-11.006283	0.568900
-16.207817	0.869700
-14.983417	0.736800
-13.602650	0.629300
-14.552033	0.561100
-11.622267	0.357300
-20.020850	0.810200
-20.278883	0.805000
-29.367517	1.369200
-22.917150	0.987500
-18.613533	0.601600
-23.776450	0.894800
-37.779367	1.701000
-20.655267	0.701100
-25.465217	0.887400
-20.185383	0.549700
-23.394533	0.683500
-18.602517	0.401100
-27.885717	0.882600
-29.840933	0.982000
-36.068817	1.252500
-27.791417	0.789600
-26.961783	0.722800
-20.211567	0.304500
-19.518867	0.194100
-27.034933	0.529600
-21.927483	0.114400
-25.672667	0.368100
-30.823017	0.648600
-27.271000	0.441500
-34.910150	0.863900
-24.521567	0.117900
-32.639800	0.583400
-43.080533	1.148500
-33.763883	0.570700
-42.108367	1.062000
-34.320250	0.631400
-40.435317	0.942000
-30.966667	0.349200
-32.503117	0.421200
-26.639683	0.095500
-30.656850	0.282200
-32.921817	0.360000
-41.134333	0.821200
-39.740383	0.732100
-43.232350	0.932600
-37.845567	0.588900
-44.656550	0.947300
-49.612083	1.250800
-55.320717	1.425600
-41.812350	0.607400
-36.245617	0.251400
-41.216833	0.538900
-43.070283	0.594100
-36.534750	0.089300
-47.975183	0.691300
-40.375333	0.265600
-50.124683	0.840100
-55.281083	1.141300
-45.244650	0.504800
-56.674583	1.050400
-57.563217	1.099800
-52.666600	0.801500
-47.404500	0.478700
-52.394050	0.650000
-54.170267	0.731700
-54.370100	0.714200
-56.510217	0.837300
-54.583283	0.712300
-56.411367	0.844500
-59.959183	1.016500
-61.225750	1.078100
-62.197533	0.906400
-57.412650	0.596900
-61.458283	0.794500
-63.175400	0.899000
-51.923233	0.203500
-62.300733	0.813700
-77.375400	1.707500
-66.959150	1.106600
-69.181217	1.066200
-64.841067	0.716400
-58.925467	0.345900
-67.611617	0.850500
-66.529183	0.803200
-63.072100	0.578900
-67.563183	0.837400
-70.396200	0.997700
-68.174300	0.839000
-63.170067	0.445200
-66.126633	0.582700
-68.965533	0.716200
-71.223667	0.833400
-69.161900	0.634100
-75.245800	0.971300
-64.374733	0.311200
-66.848450	0.459800
-73.641983	0.719800
-74.915283	0.745000
-71.990167	0.562200
-69.439133	0.418600
-77.095450	0.861800
-77.907633	0.861400
-77.264883	0.810700
-70.108767	0.387900
-68.980933	0.301600
-71.103667	0.409200
-83.586100	0.932600
-81.926500	0.800300
-79.220933	0.616300
-77.439250	0.476000
-91.666500	1.236800
-88.671917	1.043700
-81.097200	0.574400
-80.058233	0.489400
-84.237417	0.666300
-80.353517	0.340800
-86.577833	0.671800
-94.944533	1.157800
-89.390483	0.813700
-90.468950	0.876800
-83.835917	0.462000
-91.146717	0.897900
-82.342217	0.351300
-78.074883	0.074200
-90.107150	0.752000
-95.655400	0.778700
-90.190750	0.420200
-97.188117	0.834300
-100.886783	1.046500
-89.203850	0.345200
-85.249367	0.089400
-89.667417	0.351600
-94.638450	0.626600
-99.820417	0.727200
-95.606283	0.394300
-101.050083	0.703300
-102.876500	0.819200
-90.868100	0.100700
-96.399467	0.402900
-93.993817	0.204000
-96.290267	0.290100
-98.765467	0.390600
-96.731850	0.261200
-105.541567	0.793800
-108.244733	0.946000
-95.115200	0.152600
-100.049183	0.450100
-104.037233	0.652900
-99.123950	0.380600
-100.670267	0.363300
-97.404350	-0.064000
-105.465650	0.362900
-105.574267	0.309000
-105.579417	0.270900
-113.265517	0.698700
-107.313017	0.339900
-109.763617	0.487800
-109.351317	0.432600
-112.996800	0.629600
-110.011850	0.469100
-116.303783	0.672100
-116.854917	0.669600
-117.839683	0.724000
-115.929833	0.605800
-116.794983	0.648700
-117.387183	0.691900
-110.314200	0.193100
-111.066833	0.235900
-116.440667	0.537000
-122.623767	0.881400
-116.609450	0.473900
-120.363717	0.679800
-119.082883	0.579700
-112.466617	0.164400
-114.694717	0.286200
-116.453250	0.387800
-123.113633	0.760600
-121.555650	0.667700
-120.816067	0.625500
-123.205683	0.751300
-120.175667	0.564600
-114.904833	0.215200
-112.498233	-0.047900
-122.169917	0.228900
-120.421150	0.103100
-123.595583	0.279100
-125.222550	0.365300
-126.082067	0.362100
-129.904767	0.575100
-133.050633	0.721300
-128.795467	0.463800
-125.237367	0.231600
-130.984133	0.555700
-135.829783	0.651100
-131.042633	0.358900
-128.268717	0.173100
-128.482517	0.149100
-133.581000	0.339500
-140.195067	0.671700
-139.984717	0.656400
-132.069733	0.192400
-136.071083	0.394600
-129.106833	-0.038000
-134.580150	0.196100
-139.287783	0.385300
-145.398200	0.716900
-139.581983	0.377800
-140.669550	0.425900
-140.127667	0.395400
-135.780800	0.123500
-140.390250	0.376100
-134.434633	-0.018500
-136.144917	0.011700
-146.587067	0.625800
-148.839900	0.738200
-139.924000	0.190400
-143.237200	0.312500
-148.443217	0.596100
-148.616967	0.584100
-143.299250	0.274100
-152.979650	0.842300
-137.164350	-0.131500
-151.683050	0.586400
-149.043967	0.390600
-151.154250	0.497600
-157.625033	0.855700
-149.909583	0.382900
-143.586650	-0.001000
-154.672617	0.648600
-151.842083	0.455800
-161.654250	0.870500
-158.362533	0.570700
-159.057650	0.595400
-152.210300	0.172400
-152.412750	0.190400
-150.087567	0.037500
-150.937400	0.050600
-153.861383	0.207100
-157.558083	0.370600
-165.024217	0.721200
-173.790150	1.242800
-163.145917	0.569400
-169.604117	0.949500
-166.700300	0.763400
-162.388267	0.505800
-170.485633	0.997600
-160.223800	0.368600
-166.491067	0.717300
-156.116683	0.085900
-162.707933	0.193600
-166.958233	0.361300
-163.203233	0.138400
-171.411300	0.609500
-167.691467	0.380100
-158.132617	-0.210300
-166.624400	0.252200
-173.525967	0.658200
-167.721267	0.073800
-173.943983	0.398800
-173.104283	0.335500
-188.177567	1.243800
-185.635650	1.093400
-181.420167	0.856800
-180.048967	0.772800
-184.831517	1.062900
-178.932833	0.603400
-174.563433	0.169600
-175.947983	0.257500
-177.347683	0.320500
-188.917417	0.958800
-181.023233	0.389200
-184.603350	0.586400
-185.980050	0.654200
-181.723067	0.411300
-184.040533	0.516700
-173.792200	-0.118600
-185.385383	0.412000
-187.379733	0.505300
-183.007267	0.241500
-188.779150	0.563000
-187.486017	0.472500
-192.706667	0.792000
-184.186933	0.283300
-181.437000	0.119000
-187.225067	0.270000
-188.752717	0.281100
-199.697283	0.907000
-195.074750	0.649400
-192.256950	0.492800
-189.203867	0.287700
-189.514667	0.301800
-180.182617	-0.267900
-185.428367	-0.115500
-194.877817	0.300900
-190.695150	0.030500
-194.207800	0.207200
-196.597950	0.300800
-196.956983	0.223000
-203.110133	0.593200
-192.217000	-0.061000
-195.394050	0.110900
-190.762150	-0.184000
-193.844100	-0.030700
-210.350983	0.822100
-204.423417	0.456000
-198.250233	0.061900
-199.858100	0.128900
-208.561367	0.656400
-203.329033	0.348400
-203.351600	0.369800
-202.619900	0.296600
-201.619150	0.155600
-202.028567	0.145800
-201.562967	0.102300
-202.552767	0.166200
-211.626717	0.672000
-202.861633	0.155200
-203.059983	0.139600
-199.306733	-0.088100
-198.234467	-0.308700
-202.289517	-0.204300
-207.210783	0.063400
-203.371250	-0.180700
-201.565100	-0.297400
-208.078133	0.067900
-214.640083	0.439600
-212.139683	0.291700
-204.544450	-0.237400
-215.533500	0.210800
-218.130983	0.340300
-214.909833	0.132700
-216.507200	0.230600
-217.145433	0.278500
-214.596767	0.089700
-221.232917	0.300600
-220.892083	0.249400
-222.899300	0.344000
-222.500917	0.331200
-220.187133	0.061900
-221.709700	0.129200
-230.620167	0.645900
-220.667783	0.058000
-243.363300	1.278800
-231.772200	0.562700
-227.514850	0.294800
-229.607817	0.402000
-218.493617	-0.329700
-223.248500	-0.045400
-226.922850	0.193100
-227.814367	0.210600
-223.239100	-0.134200
-227.326467	0.047100
-226.900767	-0.012300
-228.780133	0.079000
-232.847967	0.314400
-230.102950	0.130400
-231.595717	0.196200
-236.556900	0.375200
-237.796700	0.423800
-240.664917	0.575100
-237.506967	0.367800
-241.604000	0.498800
-238.842800	0.333800
-229.756783	-0.243200
-235.130800	0.070700
-244.137083	0.606400
-240.027567	0.351600
-235.745033	0.057400
-243.466367	0.501900
-233.717667	-0.129900
-236.424517	0.014400
-234.991883	-0.072800
-232.548683	-0.229700
-245.682167	0.429900
-240.647850	0.095900
-246.762967	0.481500
-244.194517	0.276000
-241.994167	0.127500
-244.155000	0.234500
-238.361950	-0.206800
-246.283950	0.200300
-239.984217	-0.198900
-253.067450	0.564800
-242.397967	-0.105000
-253.670800	0.477800
-254.987633	0.520900
-251.749700	0.294800
-254.830900	0.473300
-250.331417	0.170100
-250.846117	0.187800
-251.514417	0.117900
-257.918833	0.473500
-252.525567	0.159300
-243.008867	-0.441600
-257.083467	0.343800
-257.883067	0.393900
-243.819933	-0.509000
-245.520800	-0.423400
-245.658517	-0.464700
-249.852283	-0.207500
-253.277517	-0.119400
-259.518883	0.206200
-258.788733	0.103900
-262.839217	0.332700
-268.468133	0.655000
-264.433717	0.416700
-256.974350	-0.163600
-266.452900	0.409400
-260.387600	0.020000
-264.880067	0.290700
-265.600433	0.287500
-270.903967	0.503100
-265.597783	0.182200
-274.351233	0.679300
-270.504583	0.432100
-258.327467	-0.322200
-265.550117	0.112500
-266.733867	0.067500
-261.315633	-0.289100
-274.052867	0.438300
-271.175600	0.239600
-268.073900	0.026000
-281.436183	0.832600
-271.365283	0.163300
-269.853933	0.021100
-277.313000	0.426500
-271.897750	0.110900
-266.176800	-0.276400
-265.651200	-0.336700
-276.991050	0.250700
-273.521967	0.071100
-279.625983	0.450100
-279.691617	0.417300
-271.707867	-0.124500
-272.186533	-0.143900
-275.756333	0.054700
-269.872083	-0.284900
-269.935100	-0.280000
-274.117667	-0.054900
-276.103050	0.056300
-284.467267	0.544500
-279.213033	0.203200
-280.547233	0.308800
-278.036283	0.202000
-277.471750	0.337100
-276.276950	0.292700
-268.940550	-0.138700
-270.415783	-0.066200
-284.465833	0.751300
-277.777267	0.336600
-271.424900	-0.032500
-270.076767	-0.138000
-274.991700	0.273500
-279.513083	0.575200
-272.449917	0.171000
-268.522767	-0.077100
-263.572567	-0.337500
-273.767817	0.290100
-270.097767	0.070500
-266.372067	-0.161400
-276.746167	0.465000
-268.567033	-0.014000
-268.066600	-0.049000
-271.122383	0.131200
-271.703900	0.234500
-268.545600	0.205700
-267.081150	0.144500
-260.514150	-0.265900
-265.714817	0.056700
-277.651250	0.749000
-266.321667	0.076800
-260.861450	-0.130000
-267.122283	0.280900
-266.836650	0.248000
-270.411117	0.460500
-279.360167	0.990300
-265.034833	0.125500
-264.706483	0.103300
-265.766300	0.153500
-259.493017	-0.129000
-262.226867	0.045000
-260.338050	-0.063100
-268.593550	0.430400
-266.708533	0.405700
-261.576100	0.128600
-263.291317	0.240300
-259.828433	0.018100
-256.711317	-0.162900
-265.415800	0.355100
-263.976183	0.361300
-259.992617	0.210900
-256.499617	0.004200
-255.860500	-0.050200
-270.591500	0.836600
-258.387333	0.108100
-261.339350	0.324200
-259.916650	0.348500
-261.862767	0.484200
-256.397200	0.182000
-259.569383	0.375700
-255.309050	0.149900
-253.194133	-0.007700
-254.436433	0.058000
-258.227717	0.287100
-261.475267	0.489900
-255.922700	0.158300
-261.495267	0.595800
-262.696917	0.682500
-259.196483	0.507400
-258.093217	0.448200
-260.121917	0.687600
-256.336967	0.487800
-253.531850	0.298400
-245.747317	-0.160800
-254.369433	0.366100
-251.893433	0.204400
-252.921783	0.262900
-245.884350	-0.163000
-252.744567	0.240300
-249.968083	0.065200
-251.528267	0.148500
-251.733233	0.169600
-251.264967	0.166800
-251.041250	0.149600
-247.113317	-0.041400
-253.065283	0.678400
-243.457300	0.118400
-247.055117	0.353400
-246.044850	0.286700
-246.481200	0.337100
-250.766000	0.592100
-256.798067	0.979800
-243.946550	0.207800
-247.521450	0.413000
-250.021400	0.580100
-241.477083	0.133900
-234.695250	-0.259600
-244.903700	0.362900
-245.096750	0.385400
-241.654067	0.205800
-242.085917	0.223500
-238.612233	-0.002900
-241.732417	0.205500
-241.532033	0.397600
-235.902417	0.103200
-235.021667	0.058200
-234.694250	0.064700
-233.690717	-0.004800
-237.304267	0.210000
-226.630983	-0.425900
-230.433217	-0.214500
-228.523800	-0.284200
-229.403500	-0.050800
-235.696550	0.327500
-231.527767	0.088200
-229.111800	-0.062200
-234.644517	0.297000
-236.043450	0.381500
-233.248000	0.203000
-227.479550	-0.146500
-235.267450	0.305300
-230.216767	0.028200
-225.708000	-0.007600
-234.835617	0.592500
-232.148550	0.455300
-223.802083	-0.040700
-233.980000	0.568400
-219.755683	-0.288800
-229.211133	0.234400
-229.522900	0.250100
-216.421767	-0.329400
-228.973683	0.478300
-224.611183	0.205000
-219.482217	-0.094800
-225.901533	0.284500
-226.390833	0.304900
-227.007833	0.322300
-225.648017	0.239700
-227.733517	0.489900
-211.845900	-0.336700
-217.052833	-0.049100
-215.904650	-0.134500
-206.079067	-0.721500
-208.195233	-0.599600
-217.111683	-0.132500
-215.850650	-0.195100
-219.237783	0.031300
-219.423183	0.010600
-217.333083	-0.115700
-219.975333	0.280300
-219.484267	0.279600
-218.900067	0.253800
-217.110983	0.148600
-217.474050	0.144500
-221.996267	0.429900
-217.091150	0.149600
-219.876617	0.308100
-219.453450	0.474500
-212.859250	0.149600
-216.329533	0.357700
-213.982833	0.201100
-214.968400	0.261200
-213.307350	0.186200
-212.485917	0.140100
-207.717483	-0.160700
-208.921483	-0.021200
-214.312250	0.352400
-215.320150	0.435200
-222.521633	0.847600
-220.550150	0.765500
-215.447017	0.484800
-206.510900	-0.032500
-215.284817	0.466800
-214.940000	0.444500
-213.204033	0.364600
-217.610667	0.651300
-206.885567	0.284100
-202.533067	0.020700
-201.790767	-0.003600
-204.157983	0.127300
-192.840567	-0.559800
-216.872683	0.863500
-201.239300	-0.048700
-208.877100	0.385400
-198.744933	0.012100
-200.978800	0.160100
-199.146567	0.080100
-197.022033	-0.057200
-197.952833	0.011200
-205.877217	0.459900
-203.711333	0.330700
-201.483550	0.186800
-203.027500	0.485000
-197.369533	0.185800
-193.081533	-0.073700
-200.189167	0.350400
-198.043017	0.240300
-195.227500	0.060800
-200.967383	0.400600
-200.798417	0.389700
-207.716600	0.821600
-200.643150	0.397100
-195.758133	0.372400
-197.265033	0.495100
-199.274617	0.618600
-196.455383	0.463000
-203.783200	0.922100
-202.783250	0.867200
-201.156617	0.789900
-196.631233	0.517300
-201.715233	0.834700
-194.832067	0.503100
-194.995750	0.522200
-193.730883	0.450100
-197.752433	0.691300
-192.587733	0.385000
-187.521433	0.072400
-188.844100	0.141800
-195.658583	0.560800
-197.561250	0.982100
-185.767817	0.308700
-195.817467	0.899700
-185.901833	0.311800
-182.860333	0.143200
-184.340150	0.196700
-178.060967	-0.173700
-188.672000	0.462800
-186.017467	0.422100
-186.578050	0.564800
-188.546083	0.701800
-174.993450	-0.070900
-186.152650	0.572000
-185.814400	0.550400
-183.354383	0.399100
-194.329200	1.042700
-187.280250	0.623900
-187.534267	0.621000
-180.671267	0.235500
-170.494250	-0.142600
-183.553817	0.642900
-183.288683	0.573700
-184.877467	0.676500
-175.582950	0.250700
-177.733817	0.382200
-179.823233	0.541300
-179.947433	0.538300
-171.359917	0.152400
-175.976950	0.468800
-177.288117	0.563400
-176.260283	0.486400
-169.333483	0.069400
-171.393033	0.192400
-171.309583	0.271000
-178.926300	0.752900
-167.266900	0.121400
-172.821383	0.445900
-163.893117	-0.105900
-167.639017	0.085500
-172.153500	0.368000
-169.884283	0.256600
-173.192367	0.460500
-171.256817	0.350100
-177.386000	0.770000
-164.726950	0.101000
-178.266317	0.929400
-175.770767	0.810900
-173.549233	0.681700
-173.065550	0.659900
-168.637967	0.390900
-161.001117	0.046200
-166.837100	0.413300
-173.583867	0.842700
-169.793850	0.619400
-162.199167	0.180300
-159.697333	0.047200
-165.540983	0.454900
-167.129533	0.571300
-159.925817	0.208800
-162.653383	0.366100
-164.106433	0.475000
-159.221883	0.153100
-156.816167	0.156300
-155.684117	0.099000
-159.132133	0.304600
-157.146700	0.195800
-166.203100	0.823700
-154.685317	0.196200
-160.009450	0.519500
-160.135167	0.541500
-158.709067	0.477000
-157.710933	0.415600
-162.620700	0.749900
-151.619850	0.203900
-150.706267	0.131400
-154.128767	0.379800
-154.595383	0.424600
-155.767567	0.470400
-154.533833	0.397600
-159.339100	0.809300
-148.209967	0.147900
-154.056067	0.502500
-156.823850	0.649400
-156.503250	0.704600
-149.589450	0.330500
-140.005967	-0.208200
-157.799133	0.855100
-143.693350	0.030500
-155.919800	0.748400
-150.729217	0.500100
-152.465783	0.669700
-146.367667	0.333900
-149.529950	0.543800
-149.874350	0.554300
-144.251533	0.213400
-152.365417	0.698100
-148.378817	0.583800
-146.989250	0.499700
-146.912017	0.498300
-149.609317	0.676800
-152.845067	0.943800
-146.178367	0.579900
-147.668017	0.684300
-149.030367	0.792300
-142.001533	0.376600
-149.598633	0.819100
-141.236500	0.422300
-144.025633	0.609400
-144.707033	0.714400
-144.526833	0.685000
-144.246883	0.673600
-142.343700	0.553700
-137.798900	0.324200
-144.270767	0.713700
-149.288667	1.009500
-149.400433	1.024900
-134.791517	0.183000
-138.794500	0.477200
-139.891317	0.551700
-132.998067	0.166800
-138.490533	0.492700
-134.536967	0.253200
-137.341267	0.441000
-138.928250	0.642200
-138.174900	0.616400
-137.180083	0.562600
-141.114633	0.782200
-137.813267	0.608700
-133.416983	0.315400
-127.697500	0.142100
-128.712333	0.220600
-131.839533	0.403600
-137.616233	0.762700
-138.581467	0.878100
-137.299850	0.836900
-133.921733	0.754300
-140.055900	1.085000
-129.375717	0.523500
-126.209300	0.263000
-132.270867	0.639900
-128.542650	0.477200
-127.457667	0.422100
-130.948650	0.679400
-116.667367	-0.177900
-130.199350	0.599000
-124.629650	0.292700
-119.783683	0.115600
-126.191550	0.500900
-123.738683	0.358900
-122.542467	0.310200
-120.079217	0.212100
-126.458533	0.589900
-122.239433	0.450100
-131.193133	0.966700
-124.943617	0.624900
-122.464900	0.467300
-117.298483	0.277000
-123.061650	0.672800
-110.857033	0.001600
-121.690067	0.634800
-125.340200	0.871400
-122.994883	0.734500
-127.185867	1.106700
-117.279150	0.525500
-120.237067	0.715800
-125.853317	1.064400
-118.548633	0.723700
-113.491467	0.492600
-117.710967	0.796200
-122.937600	1.108100
-118.914583	0.868000
-117.542867	0.775200
-115.251050	0.676100
-115.825800	0.800900
-111.311667	0.521100
-117.981083	0.984100
-117.521100	0.953600
-118.689967	1.021500
-113.327750	0.689600
-95.332917	-0.282900
-99.443600	-0.036700
-108.745350	0.515300
-109.159650	0.555800
-112.202600	0.816500
-111.797183	0.836800
-123.201700	1.549400
-109.285900	0.748100
-100.054017	0.187800
-105.058450	0.486800
-108.128017	0.785700
-109.955500	0.901100
-113.688800	1.124900
-103.032050	0.497300
-100.127883	0.387100
-108.338317	0.915600
-106.169367	0.817200
-110.410983	1.113400
-109.428833	1.067800
-106.143200	0.934100
-104.679967	0.849300
-107.911717	1.022400
-105.272217	0.867900
-114.727867	1.490700
-112.013317	1.350900
-100.714583	0.671500
-99.998450	0.633200
-98.683700	0.659300
-106.671617	1.181400
-105.600667	1.108800
-91.181417	0.280500
-94.061267	0.462300
-93.841800	0.434300
-91.919267	0.406200
-92.859133	0.511900
-106.290683	1.373200
-93.666633	0.625300
-100.137850	1.025000
-97.149233	0.846700
-95.183217	0.746400
-94.719650	0.744500
-97.660967	0.944400
-95.079217	0.799500
-97.776133	0.945700
-93.001483	0.787600
-93.694417	0.854700
-92.969850	0.799700
-83.113667	0.225300
-83.045483	0.205900
-88.657317	0.544500
-81.555617	0.217500
-86.122817	0.492900
-93.233100	0.934100
-89.067450	0.701000
-87.479533	0.583300
-92.920817	0.915600
-98.448533	1.394200
-87.946183	0.766600
-95.134650	1.208000
-93.841683	1.156000
-94.047217	1.272600
-84.750300	0.760700
-84.260967	0.755100
-79.363300	0.487400
-85.561150	0.855200
-81.962800	0.642200
-77.670567	0.392700
-78.314100	0.455300
-78.931900	0.509000
-89.372867	1.137900
-89.172583	1.165300
-84.150650	0.949400
-84.537283	0.996400
-82.333133	0.883000
-88.601450	1.279400
-81.791083	0.875800
-84.633067	1.074600
-81.027783	0.980500
-79.324533	0.920500
-85.452283	1.343800
-78.874150	0.963500
-81.881733	1.146100
-77.172950	0.877700
-83.481000	1.278800
-85.461550	1.423400
-79.819883	1.077400
-82.658517	1.265700
-73.522417	0.822900
-74.120233	0.985000
-79.820083	1.341700
-73.147733	1.004200
-66.165800	0.581900
-72.815533	0.961000
-74.137917	1.108500
-66.496917	0.717900
-76.100133	1.317700
-68.874967	0.920700
-68.003350	0.864800
-77.035283	1.397200
-74.497417	1.265700
-65.179233	0.824200
-69.741700	1.114700
-76.375900	1.557200
-63.312267	0.768000
-66.862000	0.976400
-63.041683	0.746800
-58.648300	0.607400
-58.830600	0.626300
-55.924117	0.463200
-52.298867	0.232800
-64.282650	1.052900
-61.030217	0.891300
-52.893783	0.429100
-58.623667	0.772800
-54.267250	0.505100
-50.159200	0.267800
-54.421500	0.526700
-66.948683	1.257100
-69.152200	1.415900
-63.867667	1.143600
-64.182967	1.182300
-64.504033	1.223500
-58.403367	0.877500
-58.893383	1.037500
-54.063200	0.748700
-52.967467	0.653400
-59.124467	1.050600
-54.285600	0.862400
-56.756867	1.030200
-63.467883	1.473400
-60.501150	1.309400
-54.624300	0.964100
-56.964967	1.113600
-56.704500	1.225700
-61.208433	1.519300
-51.176133	0.989500
-53.988050	1.140200
-42.921583	0.469300
-48.929583	0.832900
-44.407417	0.605400
-48.093767	0.837600
-54.202817	1.163400
-51.366383	1.065700
-47.159683	0.824200
-45.931167	0.761100
-53.714167	1.281900
-56.116333	1.515700
-52.740450	1.335200
-46.508683	0.967300
-54.594300	1.486700
-42.827733	0.897100
-43.163917	0.940500
-38.172550	0.637400
-49.253367	1.317900
-41.655867	0.950700
-41.452633	0.946600
-44.324783	1.157200
-40.715400	0.932600
-45.151050	1.248500
-44.199650	1.203800
-43.426233	1.171900
-50.580133	1.582300
-44.442433	1.280500
-44.647233	1.312900
-40.337933	1.069000
-41.267000	1.075400
-47.994733	1.571800
-44.031583	1.405900
-41.448000	1.293500
-39.449717	1.186800
-48.062500	1.731200
-43.444500	1.473500
-40.550083	1.395700
-37.027483	1.253500
-34.113517	1.100400
-35.133633	1.209100
-31.444233	1.006000
-34.879000	1.207400
-28.861350	0.858200
-27.639250	0.884900
-28.393850	0.926300
-40.707667	1.659900
-32.055983	1.150000
-30.858117	1.128600
-28.031783	0.966700
-29.972800	1.076000
-29.684133	1.077100
-31.829800	1.215800
-35.038700	1.394900
-32.716650	1.351400
-27.289550	1.073600
-27.793050	1.187000
-32.683767	1.477500
-24.766000	0.994700
-26.791517	1.142400
-29.022383	1.341700
-29.348917	1.380600
-28.310067	1.317000
-25.366867	1.141200
-23.004383	1.042000
-18.812767	0.902700
-17.852883	0.826900
-19.564767	0.950400
-23.094717	1.190400
-27.953800	1.487300
-19.026983	0.960100
-23.920367	1.281900
-21.930200	1.197800
-24.033950	1.348700
-22.463733	1.240300
-18.743100	1.159400
-15.614233	1.015000
-19.193167	1.251000
-12.178933	0.847900
-12.407483	0.916000
-16.701667	1.193100
-16.290983	1.150900
-21.759183	1.492900
-25.235367	1.782300
-17.350117	1.334700
-18.345917	1.415100
-17.773450	1.385000
-17.006200	1.386500
-15.289900	1.439600
-21.028150	1.800800
-14.510733	1.456300
-9.452867	1.181700
-7.912617	1.098000
-13.372350	1.434500
-11.071550	1.339100
-9.153350	1.225700
-6.405600	1.126100
-5.208033	1.059400
-4.573083	1.007200
-3.155900	0.943100
-8.032867	1.225200
-9.093983	1.299700
-7.194283	1.331200
-4.324983	1.192600
-10.673667	1.610100
-4.745850	1.289300
1.992850	0.880100
-1.072700	1.073900
-4.092483	1.249900
-5.049417	1.307400
-1.253367	1.110300
-2.676200	1.232900
-6.669617	1.482900
0.190617	1.136800
-3.177917	1.326600
2.475000	1.006700
-2.069217	1.300500
1.433217	1.230100
5.442050	0.975200
-2.678150	1.466600
-4.736317	1.600500
4.485367	1.087900
3.611633	1.146600
7.417250	0.952100
-5.071850	1.702700
-5.476667	1.768800
-7.967017	1.925400
-6.483867	1.984200
-3.083017	1.820400
5.735767	1.362700
0.225733	1.663200
-2.703650	1.834700
-0.008817	1.697100
1.527900	1.653200
3.659450	1.520000
4.773267	1.503400
9.866417	1.235500
7.609400	1.375400
2.589717	1.687900
7.492050	1.447400
14.764200	1.134200
7.914700	1.532600
11.695917	1.319500
6.343650	1.666100
11.813083	1.478100
6.556967	1.790200
13.442567	1.383700
20.337717	0.965800
12.990400	1.545500
17.736650	1.255700
15.403133	1.436700
19.552600	1.183700
17.381483	1.347000
13.863550	1.582400
24.703517	0.931300
17.526433	1.350000
19.224217	1.327000
20.457117	1.244200
18.712650	1.339100
12.708433	1.694400
21.143767	1.302400
27.228833	1.000800
22.200150	1.337300
21.037183	1.439400
29.461133	0.945300
25.977550	1.124300
24.804983	1.222500
19.429733	1.625700
18.648617	1.698400
27.650350	1.172300
32.704467	0.884200
23.868967	1.490500
18.527900	1.848200
22.684117	1.661200
25.643100	1.469300
29.787917	1.229500
26.845850	1.400300
32.663783	1.172700
23.170167	1.757800
37.721700	0.959900
35.470500	1.095800
24.821300	1.723700
29.403450	1.459700
30.727383	1.486500
41.028000	0.888200
32.059733	1.415100
30.882333	1.481400
25.568433	1.898400
34.050433	1.453200
42.817917	0.995500
34.886050	1.455800
28.211400	1.866200
44.417100	0.914900
30.711283	1.727700
30.916367	1.829200
39.049667	1.365100
42.637883	1.184400
41.224550	1.253600
40.641917	1.282000
43.083900	1.140500
39.673700	1.399400
41.517417	1.312900
34.254767	1.735600
36.459167	1.624900
34.690767	1.777000
33.882100	1.836500
36.202150	1.806800
37.012333	1.799100
51.992800	0.935600
46.772517	1.234000
45.647350	1.379900
38.254183	1.896000
42.823033	1.670400
50.877567	1.198900
52.951300	1.087100
52.190000	1.133900
57.056933	0.905700
59.101167	0.833800
54.322650	1.117400
53.311550	1.205300
45.225050	1.682300
50.644550	1.365500
62.345200	0.687800
47.297133	1.691400
50.461600	1.523300
45.447883	1.833900
40.151583	2.125800
56.932183	1.272900
57.755133	1.256400
53.052650	1.591100
55.559550	1.430900
53.768067	1.544200
61.446000	1.089200
58.379567	1.391500
61.104583	1.244700
43.164883	2.348700
54.380900	1.703300
62.307367	1.231900
66.841300	0.943100
56.328100	1.684400
62.217217	1.354000
66.308033	1.110900
59.500283	1.521300
71.732067	0.880900
65.052783	1.326300
58.376233	1.758900
59.940700	1.667600
58.861650	1.736300
60.011883	1.685400
68.050650	1.197800
69.840067	1.123000
65.907600	1.361900
64.043200	1.490300
68.073467	1.273900
60.930417	1.726600
64.667167	1.541800
66.908200	1.447700
67.371133	1.452600
68.409967	1.370800
68.364867	1.366900
66.833250	1.590200
66.385033	1.653600
60.324217	2.063800
73.666450	1.276100
65.101683	1.803300
60.878533	2.065500
70.960350	1.530500
70.983933	1.573200
67.683400	1.817300
74.908850	1.408700
79.454783	1.131900
71.202550	1.650800
80.033850	1.157300
82.955600	1.073600
75.346167	1.521700
75.158467	1.570000
71.660033	1.788300
81.732150	1.195700
74.674717	1.615300
75.665533	1.563300
74.570550	1.638200
76.092083	1.752300
78.201117	1.618600
87.565517	1.086700
81.639900	1.469300
80.172383	1.609200
80.238200	1.603400
72.705050	2.089100
77.987267	1.755100
80.194333	1.743000
79.044567	1.846900
88.299417	1.320700
85.858733	1.488600
76.374867	2.033200
80.898017	1.759300
87.135117	1.400800
88.461017	1.334500
87.839700	1.375100
83.515917	1.629400
87.703700	1.420400
86.784950	1.583000
84.181967	1.762000
86.206000	1.697300
87.292383	1.641000
93.202817	1.302100
85.003033	1.803300
92.753667	1.479700
94.000950	1.422800
88.274117	1.859200
88.731767	1.829200
89.048300	1.820300
89.828867	1.780300
82.367233	2.422200
89.327500	1.998200
89.671833	2.005200
92.177600	1.836800
95.412150	1.679300
92.287017	1.909900
100.522950	1.430900
99.102317	1.569700
89.718867	2.129200
90.768800	2.075300
92.526750	2.001800
93.839700	2.029700
103.175133	1.502100
103.397633	1.529700
109.730183	1.133700
101.856517	1.602100
100.761733	1.653600
102.346517	1.685500
109.804983	1.220700
107.812117	1.365700
106.470967	1.459300
102.032883	1.813800
108.805283	1.436100
106.896400	1.576400
102.514650	1.849700
100.663817	1.953100
104.504933	1.734300
102.827750	1.873400
106.819333	1.653300
110.681683	1.484400
113.090833	1.316100
114.105683	1.245300
102.948950	1.918700
117.104600	1.205300
109.020250	1.714400
102.115133	2.141400
113.043033	1.499700
114.777433	1.398900
103.251700	2.239700
108.083883	1.941900
106.050667	2.124100
113.306500	1.684100
102.231600	2.341100
114.137100	1.654700
114.904767	1.684600
116.761333	1.600200
111.055783	2.034000
113.836383	1.881600
113.227150	1.915700
119.394967	1.570900
125.212183	1.326000
122.965000	1.471100
112.655033	2.065500
116.368300	1.866200
116.681583	1.944900
113.403533	2.192400
106.032433	2.747400
115.107333	2.172600
130.216850	1.268300
127.611617	1.426900
120.363733	1.950900
123.299050	1.820300
126.429333	1.652700
123.445883	1.846500
122.479133	1.910400
125.382467	1.696600
123.053267	1.885600
133.730117	1.360600
124.992467	1.879300
128.079100	1.694300
127.777300	1.712900
131.207833	1.565100
115.796183	2.479500
122.544933	2.097000
126.857300	1.843700
126.461617	2.037100
128.856267	1.940500
123.554417	2.302300
127.981200	2.060300
133.696467	1.736800
131.305417	1.854100
138.721200	1.551500
135.108717	1.750300
127.078033	2.234100
127.102950	2.257400
129.325900	2.156900
128.523583	2.257800
135.921000	1.834700
140.679733	1.538700
136.849767	1.794700
137.725550	1.840700
138.807450	1.766600
144.331050	1.432100
142.223517	1.570900
141.383900	1.720700
136.931050	2.016800
138.003017	2.008300
144.332900	1.632800
142.522033	1.701000
141.901750	1.739600
143.449167	1.774300
143.946900	1.791200
140.520850	2.008700
137.881600	2.180900
150.623783	1.449600
144.690200	1.808900
150.819400	1.441400
147.441200	1.628300
141.258650	2.180900
146.102867	1.919200
137.319850	2.485100
135.956500	2.583800
143.912000	2.149400
145.750383	2.076000
150.844367	1.772500
145.451617	2.090200
145.422733	2.128500
146.773350	2.160500
152.155600	1.870400
148.743967	2.096200
154.029117	1.798000
155.835533	1.695900
155.852700	1.702400
163.859717	1.304500
158.923467	1.614400
152.931317	1.969000
153.828900	1.905200
149.356267	2.286400
150.969633	2.209800
152.025400	2.212400
150.149433	2.305500
161.825017	1.623400
162.184100	1.604600
158.722017	1.777000
154.471417	2.040100
149.399667	2.550700
159.314500	1.961300
158.506900	2.064800
170.410767	1.352800
156.352750	2.201900
169.890133	1.390500
169.495883	1.347000
158.326350	2.032700
158.116067	2.114200
160.032933	2.072100
167.946317	1.629400
166.364933	1.768800
167.919350	1.666100
175.727600	1.192400
168.822067	1.616200
162.069783	2.118600
162.634950	2.095400
167.315600	1.874600
160.843417	2.283400
164.386617	2.071300
171.466817	1.645900
173.137383	1.677900
170.610617	1.855000
171.980383	1.782300
174.478933	1.627200
180.523683	1.254300
180.792367	1.231300
170.958517	1.990000
175.233083	1.748400
167.492350	2.212400
172.603683	1.903800
168.012483	2.268300
169.844133	2.245800
176.469733	1.892400
180.355150	1.629500
171.683050	2.164400
176.079867	1.928500
181.133317	1.666900
185.304783	1.434000
165.821017	2.609500
172.802733	2.194200
180.888417	1.750000
180.978583	1.867500
184.986517	1.639900
172.190933	2.449800
177.786150	2.138900
180.466367	1.991500
182.790733	1.854900
182.031467	2.041000
183.829417	1.907500
177.994633	2.270100
187.970650	1.697000
189.158267	1.654600
192.376367	1.496800
183.848817	1.971100
187.019967	1.828000
195.403583	1.347000
188.271817	1.753300
189.990467	1.730500
192.859367	1.613800
178.477650	2.495600
185.802800	2.088500
189.807367	1.868500
198.810900	1.346600
195.425250	1.587800
183.822417	2.423800
180.732600	2.633900
193.707983	1.878900
194.907483	1.811700
192.896650	1.975400
191.432517	2.103400
188.191633	2.351400
197.112933	1.811700
188.663367	2.337100
193.980250	2.046800
191.196150	2.368400
192.814333	2.274600
200.376850	1.836500
203.151233	1.674300
206.875217	1.470700
199.246767	1.946800
214.458717	1.087300
206.364367	1.546900
207.506250	1.520000
201.613633	1.825500
197.434333	2.157300
202.961400	1.880600
201.755950	2.000300
212.437883	1.407300
200.914467	2.102200
208.239500	1.678700
199.755450	2.200100
197.481200	2.504600
205.543300	2.015000
205.769900	2.007800
206.229217	1.985800
214.498617	1.618600
209.181933	1.943400
217.166933	1.499700
211.195217	1.840000
201.830867	2.448400
206.079800	2.192900
209.841850	1.974800
211.577933	1.874100
212.826667	1.936600
202.834800	2.552600
210.785200	2.079500
216.225250	1.783400
208.978833	2.311200
219.614900	1.724600
212.672233	2.178300
218.941767	1.829500
216.371817	1.950100
220.415750	1.720700
212.855817	2.204500
221.142883	1.827900
226.837433	1.497300
214.049983	2.295000
219.205567	1.994200
216.063033	2.197800
214.861517	2.298400
220.777183	2.055000
220.954550	2.057900
223.330683	1.893300
220.269917	2.100700
225.493383	1.891500
220.335683	2.222100
220.616433	2.227500
227.990933	1.811100
228.304633	1.786800
220.290750	2.263400
218.586017	2.489200
223.717433	2.228100
232.906283	1.723500
227.973967	2.038000
224.305517	2.249800
227.912567	2.052400
225.476500	2.364500
223.090433	2.499300
231.537967	1.960600
229.861533	2.093100
225.926933	2.340000
227.142333	2.314800
233.393033	1.959000
240.471783	1.570200
237.008633	1.777800
228.137900	2.282900
226.596117	2.388700
231.877217	2.219800
234.518467	2.096200
237.844367	1.938100
230.759233	2.371800
235.952017	2.083900
227.192683	2.594100
239.977500	1.954700
233.559533	2.340900
243.826517	1.798000
240.008833	2.009100
239.428150	2.036000
241.059050	1.953800
232.637867	2.569000
236.578867	2.356300
249.668750	1.562000
239.909733	2.160600
238.374450	2.306000
241.003967	2.232100
241.587400	2.225900
236.192900	2.559200
238.393883	2.452800
243.176667	2.171200
246.583167	1.992100
247.148733	2.100900
245.398317	2.234200
248.299833	2.091300
247.634050	2.161400
252.959433	1.846500
244.596450	2.354600
245.930500	2.419400
243.395767	2.575000
252.885983	2.043000
241.650233	2.708700
261.480350	1.605800
254.323583	2.035500
251.620117	2.317300
247.817650	2.565500
257.367417	2.002600
253.812917	2.194900
249.666067	2.536600
258.016667	2.112700
260.765267	1.981600
256.937850	2.202500
250.444717	2.567500
250.949933	2.532000
248.139167	2.738800
259.444850	2.153900
254.000900	2.492600
253.042450	2.563400
256.274617	2.397700
262.457017	2.144500
261.296650	2.227400
262.721750	2.201900
251.664550	2.861000
254.415767	2.693800
259.533600	2.399000
267.023383	2.107500
265.737400	2.185400
262.809283	2.378700
257.825483	2.673900
258.690083	2.660400
265.679017	2.248000
262.182983	2.449200
264.459383	2.331000
270.069083	2.005200
266.347950	2.221100
267.713133	2.245500
263.311450	2.565800
270.962950	2.155700
269.252017	2.264800
260.009717	2.805100
270.484400	2.189300
265.625883	2.554500
274.998950	2.072900
264.641350	2.710700
270.752250	2.357300
271.918933	2.288100
273.232000	2.222900
275.245383	2.137200
274.734617	2.266600
272.264650	2.404400
274.557650	2.273600
261.407217	3.077800
273.988217	2.500900
269.784850	2.778800
275.471083	2.432700
280.006400	2.131700
286.778817	1.879300
274.916617	2.594500
271.343567	2.853100
280.539433	2.304900
288.904850	1.826300
279.031300	2.462300
287.146167	1.983700
281.822350	2.276600
296.363150	1.520000
288.379183	2.001900
287.329433	2.065500
291.606983	1.778400
281.850133	2.443200
282.393050	2.488400
288.420217	2.154700
284.488233	2.407800
288.075333	2.202600
287.941950	2.215400
293.840433	1.899300
285.238133	2.506800
294.508117	1.970200
287.786383	2.426400
293.343433	2.100900
300.598700	1.654700
296.907000	1.881500
297.182117	2.001100
299.991683	1.847700
294.513700	2.144900
291.437267	2.335000
297.693050	2.084600
295.913650	2.214800
297.859733	2.130600
284.265617	2.947900
309.071217	1.513000
299.511733	2.065500
296.179950	2.333000
295.778867	2.426800
286.129817	3.031600
293.711567	2.633800
289.732567	2.866000
293.214300	2.681300
298.927333	2.387700
301.368867	2.291800
301.245717	2.323600
296.656900	2.594900
298.851067	2.467600
299.010300	2.580800
307.598533	2.104500
307.773267	2.081800
306.153250	2.192900
308.714783	2.055600
303.771033	2.339100
310.077883	2.088000
312.867217	1.966600
308.375050	2.236400
305.535333	2.393100
302.512683	2.725800
306.264667	2.544100
309.430017	2.427400
303.867900	2.733200
307.240700	2.516600
310.679350	2.355200
309.213383	2.538600
312.539467	2.408500
316.056333	2.217600
318.965733	2.068800
317.195650	2.177600
313.651783	2.359200
310.996033	2.542800
305.335600	2.941100
311.235200	2.598500
318.402900	2.162900
314.547833	2.416500
315.453633	2.533500
310.514900	2.840900
312.161083	2.761800
317.068000	2.479100
324.098883	2.108700
319.913533	2.372400
320.914783	2.310900
318.584233	2.464800
327.012417	1.987900
322.397917	2.256700
320.129283	2.492100
315.834583	2.754900
325.876733	2.293800
321.035133	2.619600
318.697200	2.768300
320.944883	2.683800
328.398150	2.255000
322.503967	2.615200
325.526750	2.467100
328.122317	2.414500
326.780133	2.538300
324.678767	2.657500
323.441350	2.768300
327.225650	2.647700
323.413317	2.903200
334.497867	2.315500
335.427500	2.240600
331.235633	2.481300
327.105317	2.721100
331.800867	2.562700
337.570683	2.236200
337.567517	2.269300
341.300883	2.071800
337.834650	2.250500
342.850983	1.934400
342.223633	2.094900
342.056733	2.118000
326.156833	3.064200
330.466667	2.804800
338.298150	2.402900
335.549683	2.613600
337.497300	2.516600
336.695467	2.577700
333.956200	2.753000
334.431567	2.742100
337.637717	2.559400
343.180367	2.275900
337.949783	2.633400
336.186117	2.775100
340.452400	2.519600
341.697733	2.442300
337.617983	2.730300
343.768250	2.514800
335.870350	2.996300
348.748150	2.283500
343.502600	2.611700
338.600100	2.923100
340.958867	2.775100
347.740150	2.506100
342.695950	2.822000
333.889633	3.372600
348.021283	2.531700
352.135967	2.386300
350.285067	2.523400
351.358867	2.520100
350.716500	2.570300
352.286517	2.448400
353.181033	2.379600
349.962967	2.645500
358.033000	2.258000
353.744283	2.533800
356.621800	2.381600
350.981000	2.710700
352.044900	2.651000
352.109283	2.682900
361.970800	2.201900
358.517300	2.405000
349.071600	2.972900
348.301633	3.033000
354.195883	2.846100
354.547167	2.863600
349.548483	3.207600
362.427250	2.428700
350.464317	3.140200
351.802933	3.082200
361.513983	2.565300
363.042583	2.449200
353.546367	3.069100
348.956567	3.379600
361.480900	2.697500
361.347683	2.697000
359.739800	2.860700
368.850283	2.421600
365.458750	2.629400
360.584267	2.967700
368.143667	2.529700
374.542683	2.152500
366.174600	2.679200
367.985583	2.678400
366.028217	2.793400
367.179617	2.780500
366.666117	2.878900
364.848933	3.087600
371.690733	2.700600
375.966550	2.479400
370.602483	2.767500
365.356700	3.106100
371.491650	2.749100
374.290583	2.662800
363.495017	3.314500
372.253033	2.828700
376.254817	2.623300
375.958067	2.650000
376.197433	2.631300
378.697717	2.600500
374.405133	2.911500
371.608133	3.090900
372.911183	3.037200
380.865083	2.564700
373.929650	3.026900
377.321400	2.862800
381.967467	2.653000
377.949883	2.871600
382.236683	2.613600
381.083500	2.689700
375.558750	3.157100
377.009200	3.085100
373.631233	3.326100
382.134767	2.844100
381.986733	2.878800
383.180733	2.813100
377.956100	3.206300
385.602600	2.799200
383.978817	2.898400
389.046650	2.594000
389.960817	2.619700
388.764817	2.756500
394.080550	2.473700
386.275583	2.976900
392.901767	2.569000
392.633633	2.573700
395.600433	2.463300
390.288117	2.861500
388.951600	2.975900
386.762883	3.148500
395.138550	2.664200
390.689317	2.926900
391.829050	2.872400
395.709067	2.640400
393.088517	2.781100
392.997200	2.780900
394.493717	2.709400
388.625800	3.149300
392.010167	2.993200
398.461100	2.628500
396.134533	2.769000
401.110733	2.513700
396.130417	2.816200
398.074067	2.889700
401.560000	2.696300
392.418767	3.282400
395.180183	3.121500
396.572767	3.131800
400.727883	2.950200
397.983500	3.167000
394.813250	3.384800
400.143817	3.098800
403.831933	2.854200
404.980300	2.836100
403.093250	3.004400
408.689117	2.673100
405.958633	2.884500
409.771317	2.670400
400.749533	3.218700
406.175567	2.894200
410.809317	2.749300
413.273483	2.634600
416.879750	2.454500
411.805867	2.751700
413.451817	2.669500
414.880633	2.604900
414.813183	2.766600
416.967583	2.596200
406.191867	3.228400
414.525483	2.737500
411.612667	3.029800
422.024100	2.431400
419.703200	2.587400
420.690550	2.576900
417.372933	2.796300
408.311550	3.316700
412.125050	3.148100
415.192867	3.011500
403.261800	3.775400
411.505233	3.314400
415.776250	3.059300
409.961833	3.441000
423.735517	2.661700
427.917417	2.533000
428.742567	2.473300
426.115367	2.630500
423.370500	2.821700
425.009683	2.844900
419.458150	3.188600
426.162650	2.850200
429.279983	2.641800
431.983517	2.458900
422.833783	3.011700
425.785133	2.988000
428.082650	2.854700
433.394183	2.593500
428.960883	2.867100
428.374717	2.929900
418.338367	3.537400
425.310817	3.200500
422.668717	3.442900
421.263533	3.558600
428.581683	3.104700
432.890733	2.908500
430.735300	3.063800
432.245383	3.022500
422.171300	3.654800
427.846500	3.344600
431.439350	3.146000
433.037833	3.062100
422.666333	3.808200
436.964433	2.990100
443.413683	2.656200
436.084950	3.113000
444.479650	2.592500
443.054250	2.661200
434.324033	3.315000
441.560233	2.905500
445.558567	2.677900
437.082450	3.177500
454.290017	2.257300
448.352750	2.637800
452.532450	2.453600
448.134433	2.705400
447.526133	2.726400
443.613100	2.965700
447.666633	2.778000
454.564467	2.356000
448.564183	2.726400
451.807267	2.544400
446.544733	2.872500
443.935300	3.026000
446.493383	2.901900
447.794750	2.976800
448.036067	2.976700
449.542117	2.892100
445.949400	3.125000
442.503117	3.490300
443.159767	3.483400
446.971817	3.295300
454.565300	2.865200
453.538183	2.968500
456.512650	2.799800
448.857017	3.381700
445.516500	3.616700
457.052383	3.018000
455.403183	3.111000
457.204017	3.027100
452.327200	3.326300
460.346600	2.956400
464.141200	2.764400
461.239017	2.969800
464.215467	2.794900
463.381733	2.838000
464.537867	2.795200
460.770383	3.059400
460.361117	3.169900
460.364867	3.170200
455.936383	3.458700
464.893967	2.956300
471.990467	2.621500
470.856267	2.721100
470.842983	2.770800
467.528600	2.956400
465.707650	3.070100
463.013050	3.226400
473.842000	2.700200
473.663133	2.690700
461.920417	3.372100
469.154367	2.952700
469.354617	3.066400
476.605200	2.635700
474.052783	2.828700
482.398800	2.357600
479.403600	2.546600
472.295300	2.949500
467.074950	3.384800
469.213917	3.315100
476.850183	2.878500
477.430900	2.860700
472.801767	3.130300
473.935533	3.074700
482.270000	2.679200
474.256717	3.198400
489.947317	2.327800
475.098317	3.226600
483.022250	2.755400
480.575767	2.887900
478.844300	3.059600
483.799267	2.876200
477.309600	3.277100
487.391750	2.674700
477.315850	3.284000
481.827167	3.178600
483.987617	3.097300
489.356250	2.790200
480.528717	3.321100
482.436133	3.215700
474.266800	3.736400
479.471133	3.569100
486.498450	3.184700
485.914233	3.212400
483.412450	3.360200
490.068967	3.070600
492.146983	2.989200
479.415500	3.775400
497.322800	2.724500
489.046983	3.210900
487.201217	3.342700
490.166583	3.292800
489.021567	3.396400
488.194533	3.455400
493.726117	3.137500
494.629050	3.146000
494.666567	3.226600
491.616667	3.430000
493.915667	3.346000
490.784917	3.544600
491.822433	3.487800
494.583733	3.334800
490.645017	3.696700
498.539067	3.268600
496.105917	3.424900
494.969367	3.497800
498.246117	3.352000
496.723250	3.460700
499.558617	3.296800
501.941583	3.149100
506.098900	2.907200
507.695567	2.809000
494.373250	3.612800
501.194050	3.208400
496.706000	3.454400
498.168900	3.386600
509.433767	3.028000
508.492183	3.111000
501.519267	3.529300
499.591167	3.657400
514.519517	2.876200
514.152183	2.931600
506.711800	3.397700
515.614483	2.861400
519.798600	2.599700
515.787517	2.811400
518.241700	2.664800
515.088650	2.911100
515.287233	2.904000
510.109550	3.210200
511.528950	3.154100
516.151133	2.888100
508.716333	3.360000
508.772933	3.369000
507.389383	3.482400
522.016550	2.863400
527.845417	2.543200
512.922350	3.450200
516.303500	3.234800
518.025400	3.168500
513.968283	3.406800
520.574200	3.004700
510.669683	3.609000
512.175350	3.806900
511.874467	3.859900
513.096867	3.802300
517.128500	3.581300
517.196717	3.686200
517.468500	3.743900
533.686817	2.783200
530.714117	2.971000
536.359750	2.636900
521.265183	3.520800
522.465417	3.544600
525.778700	3.440300
535.285717	2.906200
522.369417	3.685300
524.783333	3.536700
526.958067	3.421000
531.250550	3.164300
534.269133	2.999700
528.685317	3.370000
534.842183	3.232500
529.123050	3.594800
536.511517	3.123100
539.210033	2.965200
531.134617	3.442300
531.389267	3.449200
540.970150	3.049100
537.773050	3.268400
537.231550	3.319700
537.442550	3.329900
531.011033	3.702600
535.341467	3.462700
541.514083	3.300300
544.442000	3.149000
545.043383	3.119100
536.358667	3.633100
536.627933	3.702000
540.812000	3.551300
547.455450	3.156500
549.871683	3.010200
539.269233	3.615900
547.335033	3.150900
544.193350	3.346100
544.088017	3.361300
544.581567	3.346000
545.992183	3.266100
536.501600	3.877400
545.033217	3.457000
543.605033	3.575400
541.513967	3.698500
547.502733	3.350100
543.398250	3.579200
550.915083	3.151200
549.423383	3.661200
553.919683	3.387300
553.732750	3.438500
554.409867	3.396400
555.382883	3.364800
558.586367	3.195400
552.851500	3.511400
550.274983	3.664200
555.644433	3.324300
551.166350	3.612800
554.267483	3.486000
559.422783	3.233100
556.176583	3.455100
554.949283	3.569100
547.711483	3.974700
557.325067	3.488200
558.684267	3.431800
557.662383	3.514200
558.401367	3.496000
563.284250	3.364400
559.997800	3.595700
556.099533	3.805800
563.855500	3.327800
561.520983	3.467700
559.670300	3.585800
559.645967	3.576100
570.037817	2.961700
572.731883	2.917500
561.946950	3.594800
561.321083	3.710400
557.513133	3.971700
569.667017	3.307900
568.787367	3.392500
568.371050	3.431300
567.715650	3.478400
565.005633	3.649500
567.169683	3.519300
561.917717	3.933700
558.592283	4.172400
569.680150	3.532700
570.627033	3.488700
580.986350	2.862800
571.577583	3.448200
574.152233	3.292800
567.074833	3.722400
572.733333	3.527100
571.903117	3.718000
573.187917	3.696400
575.045133	3.585900
576.020550	3.561200
577.614050	3.475700
577.888300	3.481700
578.671933	3.457500
574.787983	3.723900
574.393300	4.012100
579.146183	3.767100
584.646117	3.444400
581.232267	3.658600
583.627250	3.520700
586.436950	3.343100
567.519017	4.488700
575.648300	4.012700
585.155317	3.461800
584.911800	3.465200
577.453417	4.220200
587.904050	3.656900
591.693517	3.433600
598.603817	3.028900
593.087400	3.420800
594.674350	3.369200
590.887750	3.597800
580.279367	4.232200
589.776550	3.673100
592.551533	3.528900
593.535717	3.442000
598.888000	3.116600
596.906383	3.267000
594.598983	3.474300
589.848033	3.780600
587.317633	4.012500
589.109850	3.923600
593.568533	3.683100
592.122300	3.783800
597.265550	3.506600
597.470150	3.495200
596.651083	3.550200
590.053300	3.947300
591.612367	4.124200
602.533100	3.542000
601.298300	3.630800
609.686417	3.145300
611.511017	3.037600
600.353883	3.681000
605.374000	3.375500
605.584517	3.357100
610.678650	3.243500
610.649800	3.377300
602.940600	3.847400
610.602983	3.408900
603.003633	3.852600
606.630617	3.654100
603.001217	3.878200
606.275900	3.677000
604.978483	3.925500
602.546850	4.228700
615.082700	3.490100
615.116900	3.505700
617.128683	3.380700
619.311133	3.265200
613.570000	3.602300
613.590583	3.607500
608.780650	3.887300
614.598350	3.563000
612.249917	3.704800
616.124933	3.741000
622.500367	3.385000
618.282083	3.646500
620.104067	3.525700
615.570417	3.795700
614.863100	3.834800
629.839100	3.146900
624.630050	3.480500
621.769233	3.647100
619.952617	3.749500
616.342400	3.977600
624.718933	3.486900
621.671283	3.657900
621.903750	3.640100
626.616133	3.370500
626.865150	3.327500
624.405067	3.522100
623.827017	3.634300
623.471733	3.670500
630.478050	3.328700
628.943750	3.423200
623.485983	3.770100
620.339067	3.973900
630.309217	3.383800
624.205117	3.762100
620.760117	3.991000
622.664717	3.909400
632.277600	3.695000
634.477817	3.547600
637.977867	3.358900
631.842067	3.726700
622.847900	4.428800
632.625267	3.855100
638.825117	3.509200
642.816000	3.278600
634.358183	3.914400
641.099033	3.529800
630.161533	4.212900
634.222883	3.971400
642.718233	3.518400
632.608467	4.132000
644.221183	3.453000
638.947400	3.756500
640.479333	3.812100
638.497017	3.955000
651.283350	3.192800
645.429850	3.526700
645.590850	3.530600
643.569650	3.712400
644.303967	3.702700
636.390950	4.210400
639.442067	4.062700
640.314467	4.010500
634.196817	4.446700
645.348433	3.919800
651.510817	3.534100
646.818133	3.834000
649.404300	3.696200
649.709500	3.781700
647.601083	3.930300
641.188367	4.313500
637.965983	4.538700
644.447383	4.331400
651.296650	3.948200
650.064283	4.073100
649.805517	4.094800
648.930067	4.195000
647.638500	4.295600
646.304133	4.416600
641.865167	4.685200
655.816850	4.027100
661.810617	3.646900
647.965417	4.488700
661.502667	3.689500
666.490983	3.428400
664.255533	3.667200
656.985900	4.100600
657.000417	4.142500
653.010733	4.384500
663.381850	3.769700
656.454233	4.179300
663.300533	3.833400
655.757633	4.279800
663.791567	3.871000
669.699600	3.528200
663.960267	3.871900
669.364250	3.546500
662.691567	4.088800
666.638533	3.861900
670.050033	3.669300
672.137933	3.543000
665.810250	4.057100
670.557900	3.828500
675.462833	3.579600
675.038517	3.608800
671.429867	3.809500
672.772917	3.743200
667.492750	4.139900
660.445517	4.643800
677.744983	3.658200
675.183900	3.825500
673.413400	3.924200
668.007733	4.250700
674.217133	3.927900
672.317050	4.157600
675.840117	3.958600
672.959717	4.178500
678.508917	3.863200
677.875300	3.895400
677.237183	3.943200
681.060367	3.781000
681.754900	3.744800
685.193200	3.557000
686.158867	3.495400
679.630717	4.015300
679.583117	4.036900
680.361217	4.052800
685.980650	3.715400
684.204767	3.821800
686.823267	3.657400
684.376900	3.907400
687.548883	3.765600
687.740000	3.815300
693.564233	3.465600
671.627600	4.740500
682.592167	4.120300
695.105817	3.434500
689.510367	3.836500
690.732200	3.785900
690.942717	3.789400
690.644683	3.826200
693.231317	3.719200
692.480267	3.804100
687.590033	4.123200
693.502900	3.779600
699.973900	3.407300
697.254650	3.591800
700.576133	3.506400
698.873600	3.619400
695.228167	3.886000
691.817233	4.105800
697.327383	3.820800
700.628783	3.628500
698.247650	3.916100
697.061200	3.994100
692.679783	4.275900
688.400000	4.534400
695.997283	4.207200
699.777150	4.009100
709.475700	3.551600
707.030117	3.682600
692.146817	4.579600
707.951867	3.652000
705.608450	3.899000
710.065533	3.671100
707.104183	3.943200
699.888800	4.332800
692.470933	4.887300
700.534017	4.355800
704.190500	4.173200
712.083400	3.842000
712.455500	3.830600
713.135250	3.790100
709.228600	4.024700
707.434467	4.173400
714.344633	3.761700
710.959867	4.123900
716.094433	3.820800
704.077400	4.536500
710.238633	4.185300
713.752333	4.156500
710.531117	4.338400
708.508450	4.453700
711.814417	4.294600
708.993233	4.599900
710.095967	4.532500
727.316283	3.552000
717.209367	4.170700
725.484433	3.720300
721.143533	3.941100
715.290233	4.304400
713.936467	4.388200
714.621667	4.377100
720.479500	4.075400
726.659433	3.685500
723.329850	3.875000
719.104433	4.186200
727.604283	3.791100
728.292150	3.767300
724.874417	4.013200
712.586533	4.748700
725.968533	3.964200
714.413350	4.682300
722.919250	4.334300
723.079483	4.361400
727.523800	4.149500
728.570450	4.093400
724.686400	4.330700
720.126917	4.622500
732.719983	3.949500
731.475883	4.034400
725.106500	4.434200
726.144050	4.364900
733.842083	4.004400
724.802633	4.608000
735.122767	4.074400
729.022817	4.444000
728.608917	4.491100
729.392883	4.475700
723.678867	4.874200
730.118900	4.626500
737.573850	4.188500
726.081267	4.884100
731.506683	4.574400
736.151400	4.425200
734.692767	4.535200
729.825750	4.890200
735.279000	4.579100
732.139350	4.790600
742.568800	4.172600
744.229017	4.108600
735.573367	4.662700
741.051650	4.348100
734.342667	4.761400
739.142967	4.511200
747.626117	4.021900
749.264300	4.069100
742.444783	4.470600
741.990217	4.520200
747.507250	4.180100
749.694250	4.117700
747.300017	4.347400
756.908050	3.793700
752.854200	4.056800
743.381567	4.642600
744.285617	4.612600
751.414350	4.217900
752.028967	4.342600
750.669967	4.439500
747.658517	4.634800
754.629600	4.248200
751.781183	4.583100
750.938050	4.633700
749.659633	4.751700
750.534850	4.716500
767.099183	3.812100
762.251217	4.103500
753.095833	4.646100
758.133267	4.347100
759.408867	4.406500
761.970200	4.244600
752.794917	4.809700
759.603250	4.423100
759.604517	4.529800
758.383283	4.669500
759.717483	4.616100
760.910917	4.586800
762.538300	4.505900
764.868783	4.364100
763.468850	4.474700
769.826350	4.197500
763.249850	4.607300
771.946250	4.088600
774.412733	3.936000
777.345100	3.757700
768.693483	4.254900
771.665433	4.135500
772.225183	4.102200
766.880800	4.432100
775.451900	3.923000
770.383167	4.283800
765.111567	4.610800
765.315033	4.638600
780.917517	3.724900
770.000100	4.358300
773.112083	4.171200
762.582150	4.876100
766.643833	4.703100
767.951867	4.682800
768.724483	4.675200
778.319133	4.126800
777.485617	4.195000
766.606450	4.981700
773.746333	4.555800
770.986967	4.733500
772.880850	4.641500
775.595450	4.577900
776.346750	4.589300
773.857600	4.766300
773.278567	4.830700
772.102167	4.924000
776.449450	4.676900
777.911500	4.617200
782.575567	4.504900
783.372333	4.452300
780.711000	4.586300
780.301867	4.642300
774.757067	5.095900
788.213417	4.315600
795.884033	3.923700
784.169683	4.618800
782.607817	4.723000
786.777683	4.489500
783.080883	4.820700
788.578950	4.541900
792.247317	4.408300
792.432483	4.375500
794.306667	4.249900
789.475733	4.544400
793.735417	4.467700
798.776567	4.156300
797.918467	4.218100
790.179950	4.667600
787.549383	4.897800
794.305317	4.518100
791.801483	4.689600
796.187183	4.475100
795.905517	4.510600
803.416633	4.077000
800.511850	4.259300
799.738100	4.305800
795.130000	4.620200
797.993050	4.502300
799.581267	4.381000
793.633233	4.797600
799.870500	4.422800
795.398500	4.829600
799.160483	4.616400
809.452650	4.054100
802.104083	4.500600
814.551083	3.792900
806.430567	4.266100
804.666467	4.462900
805.878350	4.460900
812.111967	4.142500
804.326883	4.584900
813.159467	4.069900
805.382200	4.539200
808.675083	4.402500
811.251100	4.346000
812.019683	4.308900
811.340800	4.368800
813.312000	4.269200
812.419583	4.440000
816.594367	4.217500
807.798633	4.807800
809.050333	4.742100
812.044333	4.560900
802.837367	5.127700
822.001967	4.144900
811.346983	4.807200
817.828050	4.436300
814.792983	4.628400
816.436000	4.655900
815.703250	4.739900
807.417133	5.303400
810.798150	5.086100
818.673850	4.667000
814.127300	4.926800
814.576667	5.004700
818.475133	4.823700
825.264333	4.433400
822.708200	4.610900
819.952917	4.760800
822.523100	4.623800
820.061967	4.797100
817.648483	5.051700
822.463550	4.802000
821.002633	4.945800
829.583850	4.459100
816.392433	5.282100
818.508867	5.172100
829.595783	4.638000
828.522083	4.707000
836.174683	4.289400
828.511150	4.754000
828.986867	4.736800
834.653967	4.395100
822.761567	5.168500
829.358450	4.786100
832.372033	4.648200
830.500217	4.760800
837.947333	4.435500
827.131383	5.126700
835.249650	4.698500
837.479350	4.595300
848.785033	3.943200
839.663917	4.446100
837.812467	4.630300
835.424317	4.855900
836.334367	4.855900
836.421267	4.892200
842.701517	4.520200
842.744250	4.513400
844.177433	4.482600
845.544867	4.496800
841.770500	4.751000
841.727267	4.751800
834.346800	5.221400
839.676950	4.968800
847.822367	4.511800
841.950950	4.941500
845.713883	4.716600
846.204533	4.707300
842.300067	4.935700
842.765033	5.051700
851.285683	4.583100
841.361333	5.189400
848.405800	4.783100
839.875233	5.392500
846.742850	5.069600
853.892150	4.677500
851.216100	4.871300
845.877117	5.230000
852.871933	4.827000
852.472750	4.888100
851.576133	5.063700
850.375750	5.176700
854.100633	5.010900
861.669067	4.554400
860.767917	4.613800
860.242767	4.637800
858.545267	4.726000
868.110417	4.148500
862.661283	4.562100
861.946467	4.598500
868.628517	4.211200
853.376717	5.113300
862.760383	4.625100
869.387233	4.246800
864.713383	4.509000
861.824783	4.692000
853.347367	5.383900
855.852500	5.237900
868.108617	4.509700
862.729883	4.854600
868.146550	4.649600
871.341717	4.470400
871.553250	4.485200
866.404883	4.811700
868.765967	4.691800
865.199483	4.962900
867.837767	4.825000
876.213583	4.331400
874.032533	4.482300
871.322467	4.752700
865.650083	5.093400
874.525883	4.574400
877.063917	4.406500
875.458850	4.561400
879.116000	4.358900
883.065483	4.209000
872.744717	4.802800
874.292300	4.745000
871.750533	4.914600
874.053283	4.883400
873.191650	4.981700
874.656317	4.966000
876.128750	4.882400
880.976200	4.588400
879.044467	4.707100
876.897817	4.974700
880.415167	4.799500
885.685500	4.498400
878.206533	4.949100
877.985783	5.066400
880.571167	4.962700
879.587700	5.030000
890.086600	4.422500
884.473100	4.748000
882.870033	4.859100
876.408117	5.306200
882.847717	5.047300
888.877433	4.715700
891.342500	4.617800
886.523867	4.905100
887.000717	4.899100
889.542683	4.783800
888.656183	4.978200
890.282600	4.896500
892.384017	4.792900
897.379100	4.508900
888.326050	5.174300
891.480583	5.024400
879.711817	5.808700
884.835500	5.514800
900.287967	4.630300
899.293183	4.682100
883.723333	5.721300
898.588717	4.906600
890.923733	5.416200
893.381250	5.300900
902.109517	4.770400
894.887883	5.213100
896.556650	5.156300
897.509283	5.204700
895.177933	5.354100
893.988283	5.421600
900.325000	5.095700
900.944800	5.186600
895.543700	5.533700
901.324683	5.256900
900.386567	5.332300
906.963183	4.983600
909.276367	4.833100
914.820783	4.635000
909.117400	4.994900
920.765383	4.331400
904.036900	5.312600
905.296583	5.257800
904.271000	5.323700
906.161550	5.374400
907.803900	5.285900
914.153533	4.932300
906.059233	5.431500
909.261117	5.274700
913.841200	5.013800
915.943983	4.908300
917.636383	4.834200
915.142133	4.939800
910.238133	5.265000
912.098383	5.242500
909.360200	5.476100
912.868200	5.285900
917.124883	5.090700
920.948333	4.880100
915.424450	5.204900
919.432550	4.988000
918.788800	5.152700
918.050533	5.224500
913.466850	5.534600
920.082233	5.152800
923.509750	5.055200
912.181983	5.777100
928.806217	4.845400
925.851983	5.069700
927.185983	4.999200
929.884233	4.841700
923.145017	5.367400
931.179750	4.905800
923.402667	5.391700
930.539717	5.012200
937.002267	4.622500
925.617150	5.292200
926.796467	5.300500
927.896067	5.320900
928.841800	5.290400
928.219583	5.353200
937.831117	4.797100
936.588917	4.855900
945.640233	4.402200
946.040683	4.438200
939.766000	4.815500
937.919117	4.936300
931.638500	5.293400
931.132500	5.426000
932.940400	5.330000
937.412867	5.107600
936.901400	5.145200
935.930967	5.230900
933.421833	5.393100
942.824900	4.969400
944.734367	4.878700
952.348067	4.478200
945.700483	4.852200
937.995967	5.319700
941.677600	5.110700
941.508617	5.170600
943.282267	5.103400
947.486117	4.834900
944.937417	5.020600
946.674633	4.992900
940.473850	5.447000
944.874817	5.224600
939.968500	5.555900
948.748733	5.051400
947.328067	5.151100
948.650233	5.094300
943.659167	5.536300
941.749900	5.684600
945.247867	5.554000
954.871300	4.997900
948.995800	5.359400
949.098550	5.387900
949.942533	5.508000
949.664233	5.534700
952.731550	5.363600
948.472667	5.614600
955.133633	5.356800
960.529833	5.091600
955.253450	5.439800
958.334650	5.267300
957.390500	5.338400
963.529950	4.962200
953.119083	5.675700
968.161383	4.844700
961.250333	5.297400
963.933050	5.152400
967.773933	4.922700
970.485550	4.763900
960.268617	5.381200
956.619850	5.685800
964.281667	5.255200
973.258500	4.756700
960.384067	5.534500
970.627283	4.936800
955.558717	5.842600
965.723317	5.441500
966.441100	5.371700
969.248333	5.217000
972.066500	5.069600
967.816917	5.438800
966.077483	5.601300
964.956983	5.761500
971.071133	5.416500
968.711733	5.550300
975.519800	5.158100
976.014033	5.220000
972.704783	5.478300
977.599400	5.237300
971.170567	5.626300
966.549850	5.908100
974.527217	5.461000
972.782433	5.613600
968.918817	5.893000
976.309950	5.469500
972.292450	5.710400
970.891583	5.810400
971.354550	5.840000
977.791933	5.478300
984.404300	5.134700
981.328150	5.320400
978.853233	5.472900
985.204233	5.123400
977.466650	5.718500
980.747683	5.540100
983.446383	5.442300
990.175233	5.049000
984.748567	5.366200
985.250017	5.341600
988.086600	5.314400
985.241183	5.504400
980.331133	5.814900
979.719583	5.846100
976.074133	6.213300
985.478700	5.733500
979.878250	6.119900
985.564317	5.776600
993.889400	5.310200
989.121717	5.598700
989.351100	5.664500
988.734650	5.774900
998.772583	5.202000
990.838883	5.674800
994.811733	5.480400
992.682050	5.705000
994.942467	5.596600
995.362533	5.608500
994.483900	5.680100
1003.032717	5.166700
996.611983	5.588700
1003.830917	5.269300
1007.335133	5.077800
1003.908433	5.336100
999.437617	5.595100
997.829483	5.706900
997.286800	5.739800
1015.314500	4.784900
1007.840467	5.238400
1007.475500	5.306900
1012.704650	4.997900
1006.133517	5.390200
1005.626383	5.420400
1011.436350	5.217800
1007.578583	5.475300
1005.029567	5.638000
1010.235283	5.324400
1004.233333	5.698200
998.570200	6.108500
1016.794350	5.034200
1007.545567	5.613100
1013.660200	5.313200
1012.917500	5.450300
1010.444817	5.629900
1007.555783	5.840400
1010.743633	5.658000
1012.733533	5.581800
1011.731933	5.640000
1013.752033	5.678700
1018.147617	5.456800
1020.121050	5.348900
1013.949600	5.712800
1015.297567	5.639500
1019.520483	5.385600
1024.119117	5.105200
1011.335783	5.873400
1019.960883	5.579700
1014.811733	5.874600
1011.926017	6.064300
1016.553183	5.820300
1021.615417	5.562400
1014.722367	6.006700
1028.899233	5.215800
1017.845750	5.883200
1026.357883	5.392800
1027.926300	5.307500
1023.693783	5.569200
1018.648533	5.883300
1018.335050	6.033500
1017.956083	6.178200
1019.551350	6.131300
1021.041633	6.074700
1024.740283	5.870400
1024.757500	5.897600
1036.806117	5.208700
1028.279283	5.714100
1023.624933	5.990400
1033.053083	5.568000
1027.486267	5.931100
1023.887583	6.228900
1028.461250	5.978900
1033.729167	5.645200
1035.109467	5.586400
1021.401733	6.460800
1029.985450	5.978300
1035.768933	5.681100
1034.041733	5.767800
1036.521000	5.758700
1035.684150	5.858600
1043.550583	5.506200
1033.813017	6.050500
1044.351200	5.448500
1043.745500	5.446100
1043.212800	5.514500
1041.292683	5.721300
1040.951150	5.741600
1039.959533	5.843100
1036.621050	6.057800
1038.811200	5.956400
1046.124833	5.539200
1039.173617	5.971600
1043.987750	5.671700
1043.979700	5.765000
1036.145167	6.267400
1041.068550	6.005600
1048.916750	5.566400
1050.536567	5.536000
1047.298483	5.740800
1044.426500	5.925800
1040.866917	6.136300
1049.289883	5.766900
1044.164867	6.125800
1049.269433	5.883900
1053.242350	5.663000
1044.741617	6.197800
1047.612133	6.054600
1050.731467	5.961100
1056.200500	5.716700
1060.778433	5.449800
1057.448817	5.708500
1057.532967	5.705500
1054.983167	5.878600
1062.890083	5.405400
1046.352067	6.562900
1055.121117	6.040600
1051.478900	6.261500
1054.730867	6.077500
1055.916900	6.062900
1050.587050	6.404600
1057.019117	6.069700
1054.766500	6.212300
1060.558800	5.857700
1065.760183	5.584200
1062.405833	5.837400
1062.756867	5.843800
1062.182333	5.907000
1054.430500	6.380000
1058.683333	6.173700
1067.194550	5.686400
1063.798967	6.051700
1063.985067	6.071500
1070.534367	5.726500
1073.239017	5.559400
1068.963433	5.841900
1067.885217	5.969800
1071.249450	5.788700
1070.442517	5.878600
1068.852033	6.021600
1070.659817	5.944900
1075.559950	5.695100
1087.351983	5.121600
1081.845333	5.462700
1078.599633	5.640900
1080.163683	5.577000
1078.548750	5.782700
1088.258833	5.203500
1076.920683	5.948100
1075.279517	6.049300
1083.339433	5.577000
1077.891283	5.906400
1074.413367	6.233500
1079.590900	5.979500
1079.426733	6.067500
1081.686483	5.931900
1082.876383	5.894400
1084.118250	5.829500
1078.910167	6.307000
1084.724183	5.983500
1083.215017	6.093700
1081.327150	6.216800
1083.793900	6.142400
1090.817700	5.819000
1093.414400	5.702900
1090.137967	5.927200
1085.197550	6.218900
1087.109250	6.127100
1084.854333	6.293700
1091.469450	6.059600
1097.811250	5.685200
1096.704767	5.734900
1097.005700	5.733800
1102.575917	5.509000
1086.050017	6.539500
1093.424167	6.151000
1097.707617	5.883100
1098.494533	5.841900
1096.900250	5.921300
1098.022300	5.929100
1101.643483	5.725800
1091.673417	6.395800
1094.928500	6.176900
1099.543833	5.926500
1095.868750	6.164600
1102.781683	5.837700
1097.968917	6.125800
1097.538933	6.198600
1097.187350	6.233300
1098.472950	6.191900
1114.137967	5.323600
1104.696100	5.886500
1098.980600	6.254900
1094.918917	6.525100
1098.360283	6.375300
1099.772133	6.305400
1097.004550	6.506000
1109.133050	5.804900
1107.784417	5.898100
1102.058900	6.296000
1106.349817	6.238600
1111.062183	5.966400
1109.663700	6.108500
1112.928250	5.944400
1109.238700	6.245300
1107.695417	6.336700
1114.272500	5.948000
1112.913650	6.014600
1114.274650	5.988800
1119.699383	5.674800
1117.121700	5.827700
1112.244117	6.128200
1114.185683	6.192300
1115.973700	6.126500
1122.816817	5.779000
1116.312767	6.149200
1109.122967	6.744100
1127.033167	5.683900
1122.275550	5.993300
1125.942683	5.781600
1124.505067	5.905600
1116.594883	6.399900
1121.535233	6.124500
1128.398483	5.706900
1118.441467	6.311500
1120.006017	6.229300
1128.359250	5.759600
1123.964300	6.193700
1127.653150	5.974400
1131.729417	5.767300
1131.953467	5.760400
1133.630833	5.696100
1130.822417	5.864200
1117.169133	6.684300
1121.920483	6.406800
1123.202900	6.446600
1125.904917	6.334300
1129.512317	6.184600
1127.017750	6.314000
1134.866033	5.873400
1136.292300	5.779700
1130.091950	6.276200
1133.045017	6.127000
1133.832633	6.096300
1129.864267	6.332500
1131.995950	6.293000
1125.121967	6.823300
1134.642583	6.318900
1138.960967	6.090400
1149.724083	5.506200
1143.337683	5.850300
1129.051667	6.723100
1130.863650	6.634400
1138.874450	6.196700
1144.456033	6.042000
1140.128533	6.319200
1148.938467	5.779600
1155.746117	5.373100
1144.165017	6.179200
1141.687650	6.344600
1142.887750	6.293900
1139.879717	6.478000
1139.044067	6.594400
1146.461633	6.171000
1140.578850	6.611600
1139.725633	6.662400
1135.895350	6.895400
1142.061083	6.536400
1146.768567	6.373000
1150.665183	6.176400
1148.131017	6.387400
1149.054850	6.369200
1152.875183	6.156600
1139.579600	6.954500
1141.346883	6.952200
1150.325450	6.511400
1150.470283	6.530400
1148.085567	6.721000
1159.628200	6.031400
1161.339767	5.916700
1157.183917	6.193000
1150.001983	6.762000
1156.945217	6.372400
1149.479867	6.829600
1160.397583	6.207300
1157.252733	6.446400
1150.141917	6.884500
1160.142700	6.320000
1165.152933	6.035700
1149.895017	6.939400
1145.785650	7.199300
1158.412367	6.581500
1158.882583	6.614700
1168.923267	6.102100
1168.299067	6.103600
1159.594533	6.623400
1166.019117	6.256600
1161.543833	6.600000
1164.952767	6.486100
1167.696117	6.332500
1165.410217	6.472000
1169.001517	6.312400
1171.875550	6.252200
1177.344100	5.940500
1171.287617	6.314800
1169.445850	6.422900
1174.785833	6.086400
1173.648233	6.189000
1176.020533	6.188100
1178.778133	6.037200
1176.036967	6.214300
1169.406050	6.625700
1168.375917	6.695500
1166.793200	6.789200
1173.957267	6.493600
1172.143383	6.666000
1169.577017	6.833200
1171.997383	6.716100
1177.225983	6.401400
1173.192567	6.652600
1177.039200	6.628700
1178.478750	6.565100
1191.475233	5.813100
1179.608517	6.526600
1181.146283	6.486600
1185.174000	6.359000
1184.943100	6.392300
1185.166567	6.410500
1187.208400	6.296900
1186.401733	6.350400
1186.397067	6.345400
1176.684833	6.970500
1183.523000	6.562400
1182.967550	6.612500
1182.900200	6.639200
1178.776900	7.033700
1194.413417	6.144400
1193.395800	6.272000
1185.985917	6.711100
1194.243567	6.228700
1192.033683	6.380400
1195.415733	6.290400
1194.489883	6.395400
1193.805783	6.481800
1191.777500	6.637400
1194.141850	6.501500
1191.684600	6.661400
1196.447050	6.544700
1198.363517	6.432100
1194.986817	6.649600
1202.680183	6.211500
1197.282133	6.631500
1201.040500	6.484400
1194.578200	6.890000
1201.037200	6.544100
1200.300150	6.590600
1201.209883	6.549600
1206.138783	6.269100
1193.619050	7.140500
1195.392917	7.083700
1209.164267	6.332500
1206.489483	6.507000
1206.168367	6.509800
1208.888683	6.341700
1212.776250	6.281300
1199.448483	7.094700
1207.605850	6.622700
1208.457617	6.588100
1213.087533	6.421800
1215.837800	6.314000
1203.858617	7.063000
1208.751933	6.782700
1219.451017	6.153100
1218.509783	6.222600
1210.911967	6.668500
1215.200667	6.489400
1206.677750	7.034300
1214.518800	6.614900
1219.985200	6.296000
1220.572050	6.259400
1215.148883	6.598200
1217.619200	6.620600
1215.344183	6.775500
1210.904867	7.055500
1210.700433	7.080600
1213.177483	7.056300
1217.119283	6.828000
1214.529333	7.051800
1219.821383	6.746700
1218.112433	6.868800
1213.022650	7.181600
1219.190133	6.909300
1214.048050	7.252400
1223.429917	6.690100
1227.907717	6.446800
1234.260050	6.210800
1229.381250	6.536900
1237.376000	6.122900
1228.491200	6.650900
1240.187317	6.030700
1235.751233	6.294300
1235.004233	6.328200
1234.642567	6.341500
1234.681983	6.481800
1236.596933	6.389400
1228.842000	6.848300
1235.345283	6.470700
1234.557317	6.540400
1231.090417	6.814000
1229.739450	6.930800
1236.279183	6.612900
1236.343667	6.634300
1226.888817	7.209700
1231.435000	6.944900
1235.287550	6.860000
1238.200383	6.713400
1235.461067	6.904900
1235.238250	6.928400
1238.146150	6.770300
1230.255083	7.242300
1243.937150	6.614000
1240.373233	6.842400
1241.950850	6.758000
1235.705717	7.144600
1240.630933	6.999900
1241.168467	7.020700
1237.347550	7.247600
1242.656450	6.941600
1240.870500	7.055300
1242.392800	6.976100
1246.401117	6.833200
1247.772967	6.820300
1243.683933	7.111200
1241.370100	7.283600
1247.082933	6.960600
1246.817767	6.995800
1246.268683	7.097700
1247.446700	7.127300
1248.917450	7.046000
1253.150550	6.783200
1253.972033	6.767700
1251.667783	7.036500
1249.303333	7.176900
1254.377183	6.936000
1247.847600	7.354700
1248.070400	7.369100
1256.249983	6.894900
1258.911850	6.859400
1265.586300	6.472700
1261.516633	6.715200
1261.441817	6.723700
1265.980633	6.534300
1260.268733	6.914700
1262.775833	6.811800
1263.393750	6.779000
1264.631317	6.712600
1267.021283	6.625200
1260.629267	7.023400
1254.920833	7.361700
1256.388683	7.313700
1263.348667	7.035400
1261.699633	7.153200
1252.950267	7.681900
1270.714333	6.641400
1260.176933	7.314000
1260.566583	7.308600
1264.149467	7.144000
1257.108650	7.580000
1266.141433	7.068600
1279.156050	6.322700
1265.837250	7.235600
1270.057633	7.018200
1273.823817	6.809800
1266.068833	7.273800
1274.036700	6.890900
1277.853550	6.680000
1267.630517	7.289500
1272.380350	7.010900
1268.637100	7.265600
1269.748883	7.248300
1271.054700	7.204100
1274.877250	7.010900
1271.639000	7.217000
1267.951583	7.488000
1265.494583	7.672800
1272.810583	7.277100
1274.614000	7.195100
1275.977400	7.272500
1284.337100	6.791000
1278.435483	7.151100
1278.617183	7.132200
1289.266017	6.620800
1287.370583	6.756000
1287.423917	6.776200
1283.234433	7.058100
1275.778183	7.558800
1283.959800	7.073600
1278.256750	7.414100
1277.851367	7.461100
1284.637150	7.164500
1285.957100	7.180700
1274.285033	7.899900
1285.059750	7.300700
1282.222883	7.496100
1289.606167	7.201900
1283.648550	7.572800
1289.284050	7.286300
1287.548817	7.383100
1294.124833	7.009500
1283.590900	7.637300
1301.446283	6.718800
1293.893200	7.196900
1292.075400	7.387400
1302.351217	6.783400
1295.316267	7.211200
1296.066000	7.167200
1290.050567	7.692400
1294.332433	7.456200
1291.422117	7.658800
1302.491200	6.999500
1298.333150	7.366100
1311.593733	6.627000
1298.253200	7.424000
1299.293283	7.397100
1306.088283	6.999600
1307.036250	6.944600
1306.797167	7.019800
1303.669783	7.307400
1309.559383	6.983100
1309.523100	7.015400
1311.470200	6.909800
1310.308150	6.989600
1306.718417	7.210000
1309.119917	7.201900
1315.528767	6.833200
1306.028133	7.406700
1304.033917	7.539400
1311.812750	7.203800
1309.816450	7.336100
1308.768633	7.449000
1311.107033	7.326300
1317.622600	6.944900
1311.585500	7.311800
1315.471517	7.185700
1320.076617	6.985900
1325.101833	6.726600
1323.975183	6.786600
1313.092017	7.453300
1309.904083	7.665300
1310.790017	7.683400
1312.444650	7.723700
1320.322533	7.270800
1317.294033	7.459200
1315.683017	7.630000
1317.231567	7.625800
1314.859850	7.790600
1322.845500	7.380200
1318.780983	7.648800
1327.178417	7.165300
1328.836300	7.039700
1327.766867	7.266700
1331.379850	7.076000
1328.152700	7.338500
1332.135617	7.108600
1333.316867	7.007800
1329.156850	7.244600
1321.766483	7.754400
1332.891100	7.121000
1334.631800	7.072700
1332.760717	7.186300
1338.921367	6.797800
1326.528267	7.543900
1328.161600	7.583300
1322.867800	7.930100
1326.667083	7.730100
1332.594450	7.388900
1342.993267	6.833200
1335.441100	7.380500
1329.740967	7.744600
1336.374633	7.383900
1334.649900	7.513100
1339.396383	7.251600
1334.776850	7.530800
1329.377550	8.008100
1340.724850	7.345700
1340.249450	7.444400
1344.041917	7.231000
1348.597167	6.952600
1340.268817	7.448500
1340.477300	7.537100
1346.854467	7.181800
1341.928567	7.473100
1341.384317	7.505200
1346.554633	7.364700
1343.015983	7.650600
1347.178900	7.499300
1347.114083	7.478400
1348.225700	7.433300
1347.142683	7.524600
1350.018483	7.457400
1344.364967	7.870600
1354.092050	7.294100
1362.090683	6.828000
1364.884933	6.684000
1353.343750	7.512500
1355.939533	7.374300
1358.946083	7.245300
1352.379100	7.643600
1359.135083	7.254600
1354.460150	7.539200
1352.997883	7.685700
1354.777350	7.603400
1356.672800	7.539800
1360.209050	7.356800
1354.390600	7.707800
1356.982200	7.556000
1354.335750	7.870700
1352.191017	8.049400
1363.563383	7.457400
1361.473167	7.625800
1362.751550	7.558100
1362.149433	7.610400
1366.478050	7.488800
1366.842833	7.498800
1366.036267	7.550500
1359.310917	7.971400
1358.274233	8.082000
1368.938400	7.583300
1364.859833	7.833600
1364.783833	7.842900
1370.818950	7.522400
1373.049167	7.490800
1370.115300	7.688900
1372.092567	7.603600
1373.137250	7.550000
1366.726550	7.998200
1367.054000	8.009900
1373.276717	7.674400
1370.181550	7.856000
1374.398350	7.768100
1366.218383	8.270400
1379.219600	7.487300
1378.014683	7.555500
1377.670733	7.719600
1378.268433	7.702500
1385.952567	7.321000
1384.648467	7.391500
1369.646267	8.314900
1377.971850	7.824500
1381.865700	7.672400
1388.173083	7.380600
1383.733383	7.649700
1380.980817	7.829800
1377.705933	8.054700
1383.666933	7.694700
1385.078450	7.646900
1385.262033	7.781100
1390.043817	7.503700
1385.579183	7.793100
1388.120217	7.647700
1390.906467	7.631800
1386.545433	7.901700
1391.906800	7.658000
1383.544750	8.156300
1395.625067	7.474900
1390.657767	7.769500
1388.608300	8.004200
1388.702467	8.050900
1390.402100	7.989200
1389.334467	8.077900
1398.096983	7.578000
1395.915850	7.683800
1398.219883	7.602600
1391.005617	8.058400
1399.129867	7.630900
1404.748817	7.309900
1401.240567	7.527100
1395.812250	7.856000
1405.427850	7.365200
1403.639483	7.545000
1404.071750	7.547600
1409.602533	7.212600
1405.956150	7.460900
1407.173517	7.533700
1410.816967	7.321000
1405.544633	7.628100
1402.009233	7.871700
1408.202167	7.652800
1414.118417	7.295500
1409.898733	7.597200
1407.892483	7.730100
1407.018900	7.863500
1408.896550	7.756700
1409.770500	7.702100
1405.992700	7.930700
1411.838833	7.751100
1408.245783	7.948800
1410.530017	7.828000
1411.128583	7.782600
1411.945617	7.777900
1415.902933	7.609800
1417.074433	7.587600
1412.995067	7.858600
1413.009950	7.881200
1408.402083	8.179800
1412.360517	8.008900
1413.862833	8.062500
1421.516000	7.615400
1414.576750	8.063900
1414.857517	8.086000
1420.529300	7.750100
1409.491517	8.416000
1424.776967	7.508500
1424.279433	7.546500
1426.128150	7.520300
1418.273067	8.005300
1416.406650	8.177900
1420.806400	7.969100
1431.285717	7.364500
1427.812233	7.597200
1419.603650	8.121500
1424.459767	7.846900
1420.384350	8.240900
1431.203533	7.641300
1431.442867	7.658800
1430.310150	7.776200
1427.269183	7.970100
1430.218800	7.803500
1432.730617	7.706500
1430.325267	7.953400
1436.635033	7.582500
1431.442650	7.921700
1441.122283	7.353600
1428.886933	8.228100
1431.070933	8.125500
1447.225400	7.247600
1438.005800	7.784000
1425.725883	8.532600
1434.475867	8.053600
1435.322217	8.059000
1428.981233	8.481900
1422.739933	8.919000
1435.532183	8.178300
1446.567400	7.509800
1443.945183	7.674000
1449.176150	7.402100
1447.044267	7.552300
1441.827817	7.908400
1435.904250	8.291300
1443.789200	7.839500
1446.534667	7.696000
1454.105233	7.345200
1443.406533	8.054700
1439.502700	8.327300
1438.355333	8.409900
1446.730267	7.981900
1451.676117	7.798000
1459.959083	7.350900
1452.151667	7.848100
1448.353033	8.089800
1458.581217	7.494400
1453.662567	7.783300
1447.984650	8.168600
1450.138733	8.064300
1450.122067	8.083000
1449.714950	8.129600
1451.278067	8.167000
1462.483817	7.553200
1455.629517	7.989400
1460.450967	7.705900
1451.053317	8.296600
1449.238433	8.394300
1461.421167	7.831000
1452.883717	8.396800
1460.729017	7.986100
1451.009150	8.593400
1459.355517	8.144500
1459.027650	8.166500
1466.811567	7.799800
1470.671650	7.644800
1458.164917	8.417200
1466.260833	7.981200
1465.030250	8.067800
1464.118350	8.138600
1464.134467	8.146600
1472.392167	7.806400
1466.321650	8.199500
1478.394633	7.511700
1467.724517	8.143300
1476.580183	7.739400
1466.904483	8.361600
1477.269883	7.801800
1476.701733	7.836300
1476.273933	7.860300
1471.911067	8.128000
1469.883483	8.414100
1476.890133	8.002200
1479.595767	7.837600
1473.780167	8.197600
1477.523817	8.105500
1475.615917	8.263900
1487.699717	7.646200
1485.774217	7.760500
1478.349183	8.188200
1481.659417	7.994500
1490.785917	7.497400
1484.366683	7.995300
1485.086717	7.969900
1479.196400	8.360900
1464.547933	9.254700
1480.554533	8.352000
1483.666550	8.191700
1482.510233	8.413200
1491.670600	7.883000
1489.124067	8.072500
1491.476133	7.944000
1489.074917	8.096200
1487.611983	8.196900
1499.251517	7.662700
1496.431017	7.829500
1496.117083	7.827600
1496.750283	7.782600
1494.728933	8.015100
1494.504017	8.046100
1491.969000	8.210900
1495.437367	8.014000
1501.832683	7.691700
1500.342517	7.809100
1494.688200	8.173100
1491.790183	8.349600
1495.924300	8.170700
1495.251850	8.225000
1490.831617	8.522500
1500.693583	7.945500
1500.181300	8.057600
1501.840350	8.056700
1500.841067	8.105500
1498.095467	8.289100
1500.837150	8.189300
1499.950017	8.366500
1505.262817	8.082400
1506.983267	7.994800
1496.128100	8.669000
1502.546633	8.339700
1511.776767	7.807600
1502.570950	8.507000
1502.046283	8.577000
1503.766783	8.526600
1504.793067	8.499400
1498.872433	8.919000
1508.605183	8.348400
1514.798867	7.992400
1505.462033	8.566200
1511.661117	8.316700
1506.105250	8.752400
1507.193467	8.712700
1512.265600	8.444300
1512.250850	8.470700
1514.875217	8.323900
1512.778433	8.458500
1505.553067	8.914300
1509.853533	8.703900
1524.264150	7.930100
1517.311250	8.360300
1520.962167	8.266000
1511.751650	8.814500
1517.184433	8.521200
1521.171600	8.285300
1528.419867	8.020300
1524.487533	8.263800
1517.171717	8.721400
1521.545767	8.481400
1518.152100	8.745200
1525.551650	8.321300
1516.722950	8.912000
1523.385050	8.524400
1527.523633	8.287800
1535.677233	7.800300
1520.919000	8.731400
1525.130967	8.517400
1524.139333	8.663700
1532.286667	8.187400
1526.930933	8.531100
1525.528383	8.635800
1523.259617	8.841100
1527.377283	8.715600
1527.853883	8.695200
1536.285133	8.215500
1535.782550	8.313200
1532.230550	8.633900
1534.747183	8.525700
1536.563350	8.464400
1545.522000	7.934000
1543.994067	8.018200
1535.008567	8.561200
1543.864017	8.176300
1544.877817	8.152900
1535.750950	8.762900
1539.618467	8.537800
1545.128833	8.221200
1543.606717	8.314900
1545.965833	8.355300
1541.882367	8.599600
1547.286867	8.307100
1539.746767	8.753500
1548.790517	8.270800
1544.011267	8.596600
1537.669517	9.015100
1546.229850	8.526200
1547.027950	8.495900
1550.372650	8.303600
1553.628417	8.213500
1551.643517	8.395300
1553.873717	8.314900
1551.473467	8.502700
1556.216883	8.225400
1558.884083	8.073000
1553.544200	8.424200
1548.303450	8.870000
1553.676483	8.562600
1553.745167	8.567200
1557.003200	8.426300
1561.880533	8.250900
1558.588383	8.458800
1557.439500	8.602700
1562.573517	8.300500
1562.864800	8.291900
1562.238600	8.348300
1559.967683	8.653200
1560.465467	8.626300
1554.705900	8.981900
1561.039733	8.634900
1553.295050	9.229400
1562.581550	8.740400
1562.543900	8.821100
1564.626167	8.686900
1571.587583	8.289600
1566.920083	8.581800
1568.801033	8.567100
1566.433817	8.795200
1569.175667	8.641900
1571.760050	8.502200
1575.501917	8.289400
1564.170133	8.980500
1570.726233	8.616000
1572.720133	8.625000
1572.507633	8.674200
1568.051650	9.002600
1577.112383	8.450400
1577.983217	8.385700
1577.450267	8.420800
1580.265050	8.301500
1573.463100	8.739800
1575.843483	8.635800
1570.300817	8.992000
1579.122083	8.502900
1574.709850	8.756900
1572.767833	8.886600
1570.314417	9.039700
1579.348667	8.742400
1582.007867	8.601400
1584.222083	8.532600
1581.828617	8.692300
1586.513500	8.485400
1585.680733	8.566200
1585.856900	8.555300
1587.211383	8.479800
1587.690483	8.490600
1577.051817	9.181900
1587.975517	8.558800
1587.737283	8.595900
1580.175817	9.061600
1591.548867	8.419000
1585.494683	8.802900
1591.021150	8.625500
1585.490783	8.989800
1590.670583	8.690400
1590.077217	8.723200
1601.309767	8.176600
1596.189367	8.512000
1589.744233	8.946300
1583.148433	9.375600
1593.978100	8.740700
1591.785717	8.908300
1599.337117	8.475700
1596.692933	8.640000
1596.907817	8.852500
1598.854150	8.755100
1591.442883	9.202500
1599.616650	8.732600
1607.433717	8.427700
1598.811983	8.954400
1603.953817	8.671900
1601.225933	8.836500
1608.596183	8.450400
1597.917600	9.224900
1596.630183	9.362400
1608.729117	8.691700
1608.723850	8.681000
1606.548933	8.817600
1602.212933	9.089400
1605.617767	9.045400
1605.287667	9.082000
1607.007650	8.981300
1607.683300	8.961200
1601.068217	9.502300
1611.554183	8.907600
1613.092283	8.865000
1611.745233	8.974500
1615.191517	8.812900
1613.611900	8.932400
1616.631600	8.755700
1617.987817	8.653900
1607.759617	9.375700
1616.704150	8.862200
1617.906817	8.793100
1614.465800	9.011600
1616.233500	8.969600
1612.237550	9.222500
1618.664967	8.905000
1622.955367	8.665000
1627.713583	8.374500
1624.249550	8.584400
1620.637417	8.872000
1618.348817	9.121000
1622.913550	8.858300
1612.653017	9.494500
1619.061833	9.160800
1618.431350	9.296000
1624.367300	8.981600
1623.628733	9.101700
1627.805633	8.857800
1636.198117	8.336800
1632.070883	8.585100
1622.100017	9.269500
1635.139983	8.513100
1623.429767	9.251200
1629.835500	8.872100
1628.421100	8.986700
1632.867850	8.748800
1636.635783	8.766900
1640.024033	8.595900
1622.655533	9.670800
1629.639933	9.258000
1640.038367	8.778400
1641.448467	8.731900
1638.988200	8.931200
1644.198550	8.618300
1634.394467	9.230200
1635.077100	9.176300
1635.429967	9.176800
1639.084967	9.089200
1639.511217	9.094600
1646.154967	8.741200
1642.738467	8.954200
1649.850050	8.549000
1654.530017	8.283700
1641.957050	9.174200
1648.436500	8.795600
1644.492083	9.041400
1645.714550	8.963300
1646.064667	9.001300
1645.278583	9.051900
1633.828167	9.813700
1643.742350	9.256100
1650.912883	8.850600
1646.705517	9.127300
1646.290533	9.233700
1649.564550	9.065300
1644.930783	9.405000
1646.322767	9.316900
1645.753083	9.455100
1651.584367	9.200800
1653.457683	9.111000
1649.096800	9.431000
1653.329733	9.193500
1649.592300	9.419000
1650.013417	9.418300
1656.386783	9.185100
1654.602967	9.334300
1656.558050	9.273200
1663.652483	8.854200
1651.495500	9.593600
1663.036200	8.898500
1658.240533	9.371100
1657.013933	9.449700
1658.594583	9.358200
1663.363717	9.111700
1666.034767	9.118300
1663.728317	9.257200
1664.233733	9.274800
1664.765717	9.265000
1660.324817	9.604300
1668.507933	9.117900
1669.917417	9.048100
1666.379183	9.253800
1669.237533	9.303600
1669.481817	9.240700
1662.215300	9.723200
1668.276217	9.335800
1670.015500	9.319700
1672.056233	9.313500
1667.344900	9.634100
1667.587467	9.676000
1673.075800	9.353600
1671.272517	9.481900
1664.036017	9.961900
1668.227700	9.850400
1671.088600	9.705500
1684.139633	8.972100
1678.849150	9.286400
1680.128017	9.223000
1672.019500	9.722600
1679.518783	9.447000
1681.822683	9.318000
1680.720600	9.404300
1683.279333	9.248700
1688.029317	9.065800
1681.398833	9.511200
1678.049033	9.749400
1686.039100	9.308600
1683.445517	9.475000
1681.097133	9.636000
1697.194233	8.780700
1686.132300	9.507200
1704.897450	8.443400
1693.995100	9.108200
1682.919050	9.778700
1691.327050	9.287300
1694.417300	9.124400
1690.551667	9.379000
1694.873383	9.137400
1696.154233	9.076200
1693.209217	9.281800
1690.828400	9.469400
1698.323250	9.038900
1697.265817	9.118300
1692.650617	9.383800
1697.460633	9.324600
1688.391067	9.869500
1696.158583	9.491700
1696.837783	9.476400
1698.762200	9.435500
1707.664367	8.903500
1695.590450	9.646100
1697.186883	9.552900
1703.418983	9.366600
1695.471950	9.847700
1692.948467	9.961000
1696.763950	9.790100
1708.603217	9.111100
1708.359600	9.175100
1703.462767	9.495700
1707.673017	9.289600
1710.643133	9.139800
1706.570533	9.376200
1712.429600	9.055400
1712.614117	9.149800
1709.123967	9.385900
1713.952117	9.167200
1716.180967	9.028900
1705.317600	9.692900
1709.552233	9.454200
1714.931683	9.294900
1707.561233	9.802500
1715.138083	9.447900
1715.923217	9.413800
1715.485583	9.451200
1710.195617	9.773800
1722.905800	9.104300
1716.043500	9.542900
1700.714167	10.499500
1701.529717	10.451200
1707.314483	10.198500
1719.558633	9.571800
1720.201150	9.563000
1724.141683	9.369000
1717.983450	9.744200
1718.730683	9.717000
1711.054633	10.193400
1725.509933	9.517800
1727.773567	9.379900
1729.719250	9.268700
1731.443550	9.152600
1727.716633	9.478500
1726.483233	9.585600
1732.870167	9.269500
1728.580583	9.519600
1733.703517	9.234400
1736.119167	9.079600
1723.708800	9.940400
1733.157600	9.446600
1731.445883	9.569400
1729.549400	9.713300
1737.674367	9.242200
1735.592400	9.369200
1731.870000	9.617300
1729.592750	9.797300
1732.805250	9.620300
1726.893417	9.994000
1727.899083	9.975900
1734.456917	9.762700
1737.058933	9.664500
1735.331617	9.848200
1735.097450	9.884300
1738.204400	9.723800
1742.736333	9.465900
1756.767500	8.762000
1751.520200	9.075500
1744.194900	9.525200
1740.003367	9.798100
1751.303750	9.245900
1741.307983	9.852300
1745.995733	9.644100
1745.532333	9.692400
1757.197000	9.089600
1753.488850	9.317000
1750.877250	9.483200
1747.714067	9.679900
1749.632600	9.634100
1750.725883	9.581100
1762.144883	8.924700
1753.025250	9.443900
1763.004333	9.009900
1756.701167	9.428800
1755.760833	9.501600
1746.292700	10.080500
1752.454767	9.759400
1757.760083	9.597300
1763.089367	9.308500
1755.045250	9.824600
1753.233500	9.960500
1753.956933	9.983700
1758.352900	9.736100
1763.392933	9.444900
1764.382317	9.402100
1761.302317	9.669700
1760.612067	9.721600
1759.883083	9.780900
1766.072900	9.418100
1758.538433	9.964500
1767.558133	9.470100
1760.939883	9.939300
1769.322267	9.439300
1769.833567	9.422500
1770.736517	9.365200
1765.331900	9.801500
1770.987100	9.525200
1768.598500	9.716900
1771.902500	9.558200
1768.684783	9.758400
1771.458300	9.598700
1770.660783	9.812400
1768.505950	9.942200
1764.062183	10.279200
1767.411333	10.081800
1764.753567	10.306900
1769.842717	10.149400
1770.630133	10.147200
1769.667317	10.291300
1770.084000	10.292300
1775.184533	10.008900
1775.599233	9.979500
1777.975083	9.924600
1773.687800	10.218500
1785.796883	9.520800
1788.142700	9.369200
1773.096700	10.354100
1785.482700	9.634700
1784.808550	9.714800
1781.098800	9.951500
1778.588567	10.134100
1779.521767	10.096300
1782.496717	10.051900
1785.492017	9.928900
1795.985183	9.366600
1788.251517	9.850300
1780.319467	10.338400
1788.540117	9.877300
1787.867733	9.974100
1788.634383	10.024500
1776.520517	10.803700
1795.417150	9.662900
1793.158083	9.809400
1792.217200	9.956000
1790.338550	10.087400
1795.940767	9.791800
1791.568700	10.082300
1798.261183	9.688500
1800.469983	9.575700
1805.473317	9.403300
1805.023600	9.444800
1797.035767	9.917800
1795.727217	10.022200
1810.905117	9.294400
1802.523000	9.820400
1800.339917	9.994600
1807.548333	9.605400
1809.024317	9.584800
1809.576783	9.559800
1806.010217	9.772000
1801.919067	10.024600
1798.883717	10.387600
1809.898050	9.742100
1809.745800	9.750200
1813.630600	9.529400
1811.580933	9.901500
1813.746083	9.719400
1802.251667	10.436500
1809.459017	10.000600
1813.769650	9.778100
1815.927800	9.688700
1813.925800	9.847700
1811.266833	10.032300
1806.929333	10.340400
1807.202433	10.389300
1812.913000	10.098200
1810.761083	10.257600
1816.087483	9.977400
1806.449933	10.704000
1817.463150	10.073300
1810.443800	10.514600
1816.978367	10.132300
1825.868650	9.722300
1819.305350	10.158200
1814.623400	10.517000
1819.757683	10.216200
1826.465583	9.841200
1819.090867	10.284400
1824.017150	10.048400
1826.882950	9.903500
1820.650850	10.323800
1823.455200	10.172900
1819.095133	10.461300
1817.346867	10.596700
1833.773517	9.663100
1819.620500	10.547000
1821.602200	10.466000
1825.678117	10.241200
1824.230817	10.388500
1832.034050	10.037900
1831.101800	10.124300
1835.044883	9.956400
1828.671700	10.358300
1833.685617	10.059700
1831.298967	10.227700
1833.711000	10.232900
1834.889433	10.216200
1837.083567	10.153300
1829.710600	10.613600
1833.813617	10.387600
1833.836650	10.377800
1825.796500	11.021600
1841.830083	10.127100
1845.394283	9.975000
1840.913050	10.255100
1843.955300	10.073600
1840.506517	10.274500
1836.029950	10.730300
1837.966917	10.619800
1842.091117	10.377100
1846.478550	10.144100
1843.692567	10.349500
1838.961933	10.676100
1835.728983	10.906800
1847.189283	10.290300
1845.316667	10.419100
1852.124450	10.027400
1849.243350	10.243700
1846.864800	10.492700
1844.535700	10.673000
1846.763567	10.564000
1854.385883	10.117800
1852.406017	10.304800
1845.272583	10.747200
1855.119783	10.308000
1852.898083	10.470000
1859.881550	10.044500
1853.578967	10.434100
1857.289500	10.276700
1862.762267	9.977800
1854.509667	10.499500
1855.383767	10.439500
1858.447750	10.321100
1863.766000	9.992900
1859.540200	10.376600
1864.025883	10.169400
1863.261317	10.273900
1861.972583	10.350000
1857.202117	10.657600
1860.497483	10.507200
1864.497183	10.318200
1870.273033	10.088400
1874.367017	9.871600
1872.342517	10.019200
1864.271633	10.503300
1870.504017	10.294600
1869.632650	10.391600
1874.076850	10.170800
1872.303183	10.279200
1860.077350	11.024000
1873.955250	10.202300
1871.106883	10.498800
1872.917800	10.412600
1869.852583	10.608900
1878.334067	10.110700
1875.142850	10.354700
1871.741200	10.614200
1874.854317	10.549300
1870.771483	10.813500
1884.144167	10.053700
1892.963217	9.482500
1886.130600	9.947000
1879.156200	10.465700
1883.743517	10.225900
1878.052417	10.589200
1881.797500	10.379900
1880.210033	10.484400
1881.781583	10.437900
1883.906150	10.371500
1889.833083	10.055400
1886.800967	10.248400
1889.922483	10.095600
1890.889917	10.039900
1886.333417	10.327600
1882.971983	10.605300
1883.756033	10.562400
1885.298717	10.510000
1883.988683	10.627800
1880.473333	10.935600
1881.795650	10.882100
1888.602233	10.512600
1889.848667	10.476400
1896.417883	10.246200
1896.586433	10.266600
1891.712517	10.602400
1894.301050	10.472600
1894.291683	10.583400
1895.367383	10.512300
1893.204833	10.675200
1893.341883	10.672200
1900.574233	10.292100
1902.989567	10.203700
1904.680233	10.109100
1896.573333	10.607400
1900.265550	10.417100
1902.378917	10.350700
1903.501233	10.313100
1903.456367	10.376500
1899.461700	10.659800
1904.706900	10.372700
1898.949633	10.774800
1909.099717	10.303900
1906.065617	10.508500
1895.732017	11.208100
1900.136767	10.957000
1901.893983	10.866600
1904.160750	10.762400
1903.640200	10.950500
1900.776383	11.140500
1906.898017	10.805800
1908.323033	10.746300
1919.831467	10.178500
1916.467333	10.442400
1905.609250	11.197100
1915.750883	10.593300
1916.672883	10.562400
1915.563717	10.620100
1908.650050	11.114000
1922.370783	10.440900
1921.283950	10.522100
1919.463150	10.669400
1922.588700	10.479800
1918.957033	10.696800
1921.173267	10.593100
1922.934850	10.649000
1923.550917	10.623400
1924.885800	10.539800
1918.185733	10.936200
1929.346533	10.420500
1925.926683	10.635000
1920.638950	11.026100
1925.415150	10.757000
1931.293217	10.419100
1933.724517	10.286200
1927.417967	10.765000
1934.709650	10.367900
1927.313983	10.898100
1927.510717	10.886800
1926.199767	10.967200
1929.069583	10.812900
1937.137133	10.441800
1928.402133	10.958100
1922.363500	11.338700
1934.892967	10.585300
1940.037300	10.331600
1940.911683	10.314600
1939.364517	10.520500
1937.272967	10.624000
1933.757300	10.834400
1934.673317	10.771600
1941.451183	10.398300
1946.127483	10.279200
1947.475633	10.213800
1942.616650	10.503500
1938.639383	10.773000
1936.666467	11.037700
1950.375250	10.250900
1945.024517	10.599100
1942.834600	10.750400
1940.820750	10.902800
1946.090183	10.584900
1951.362817	10.426000
1954.250350	10.302500
1954.485367	10.376200
1955.356183	10.310100
1948.250117	10.778200
1954.844517	10.393900
1960.726483	10.146000
1948.980483	10.925400
1950.276367	10.913800
1952.467117	10.812400
1952.236917	10.829200
1954.900717	10.706200
1944.680333	11.412900
1948.113850	11.297300
1949.810600	11.222600
1955.597967	10.912300
1954.776750	11.008700
1958.156783	10.944600
1958.004100	10.950500
1947.612217	11.595700
1958.706300	11.000000
1962.029117	10.939300
1957.107250	11.258600
1968.394567	10.632100
1959.265733	11.223300
1960.950083	11.136900
1959.470017	11.243500
1957.119967	11.391100
1963.783700	11.000000
1975.470883	10.420800
1968.965017	10.834000
1958.283667	11.456200
1971.280733	10.704300
1968.823450	10.968500
1971.321683	10.859400
1970.032017	10.995100
1965.324733	11.304600
1978.528650	10.546700
1968.214983	11.159700
1968.263950	11.229200
1971.741117	11.098000
1976.705633	10.846500
1971.051283	11.227800
1977.211900	10.869200
1988.279783	10.203000
1981.318967	10.617700
1981.277067	10.772800
1977.501450	11.025500
1981.519450	10.813100
1981.626950	10.820600
1976.526417	11.140000
1973.789633	11.295900
1984.590250	10.821200
1986.047733	10.755000
1974.944400	11.438300
1976.400050	11.358500
1977.294083	11.373000
1984.362500	10.992500
1986.739383	10.921200
1986.181200	10.939400
1986.569617	10.955800
1988.359467	10.832800
1991.900917	10.720600
1994.131233	10.661100
1992.589467	10.814200
1990.354067	10.956400
1988.277517	11.091700
1985.808867	11.259400
1994.762067	10.761700
1994.159733	10.947600
1990.760867	11.174800
1992.652067	11.086000
1990.467333	11.254800
2006.332717	10.456300
2004.354817	10.612600
1996.548550	11.144600
1996.273533	11.155500
2001.548600	10.851500
2001.299733	10.866600
1999.801517	11.097400
2015.233517	10.196800
2004.839733	10.856100
2006.296133	10.773600
2003.855450	10.945700
2007.193283	10.737000
2004.379517	11.076400
2004.119533	11.119800
2012.802450	10.635800
2006.063967	11.020900
2007.883517	11.006500
2007.252700	11.143400
2012.158550	10.875200
2015.458817	10.708600
2011.931033	10.919100
2011.208250	10.981400
2015.818867	10.753900
2008.206117	11.369200
2012.408200	11.134100
2016.030133	10.925400
2017.141600	10.880900
2017.913317	10.999300
2019.608783	10.941600
2018.153917	11.067100
2012.573717	11.413900
2009.765067	11.599600
2016.315233	11.221200
2021.822550	11.009000
2023.195550	10.970900
2023.958550	10.992500
2020.455533	11.212800
2027.576983	10.845600
2021.160133	11.191200
2022.115067	11.245900
2019.148367	11.500300
2020.857183	11.410500
2024.027483	11.254800
2027.987817	11.008900
2026.095000	11.123300
2025.190883	11.163600
2023.161783	11.385600
2022.732167	11.434600
2027.514450	11.212100
2027.593183	11.233800
2029.744217	11.116300
2033.448167	10.918300
2025.805350	11.407400
2025.658900	11.423300
2031.105767	11.171800
2040.673250	10.635800
2035.014067	11.036800
2028.596300	11.433800
2030.047267	11.418400
2035.647283	11.102100
2028.287333	11.569500
2035.833050	11.114900
2032.662800	11.429900
2038.690867	11.152900
2031.245950	11.642900
2045.083283	10.847400
2037.826450	11.298200
2039.232683	11.223900
2045.033717	10.958800
2037.988650	11.505800
2036.284400	11.632400
2032.323900	11.902100
2037.429750	11.674400
2038.295467	11.776300
2038.742817	11.798500
2037.966200	11.923700
2045.468967	11.492500
2046.849583	11.431200
2039.628083	11.880300
2044.886717	11.629300
2045.898583	11.608800
2045.461067	11.733100
2051.824400	11.349200
2053.255083	11.270100
2054.353667	11.214100
2053.197200	11.363900
2050.264733	11.541300
2054.413583	11.315100
2050.617650	11.567600
2052.984700	11.554100
2056.130017	11.439700
2059.040150	11.315300
2053.848200	11.686100
2052.338817	11.790400
2053.555317	11.725600
2052.722917	11.779300
2057.368650	11.513900
2062.032883	11.276700
2063.221233	11.405100
2068.531467	11.107900
2064.050783	11.398500
2064.042567	11.409700
2055.572383	12.050100
2060.874650	11.759000
2059.191417	11.854000
2064.524450	11.567000
2066.294250	11.515700
2067.387333	11.467800
2061.496483	11.877900
2070.135367	11.386900
2071.918000	11.298200
2069.853950	11.431700
2072.655617	11.383300
2068.541467	11.687500
2073.380567	11.482900
2065.196017	11.974600
2072.182133	11.584800
2077.273033	11.269800
2077.655333	11.405100
2075.294700	11.568800
2070.141067	11.931400
2073.609000	11.720300
2073.115317	11.867200
2080.100117	11.545900
2085.660450	11.235500
2083.435500	11.438300
2079.452033	11.672400
2080.073667	11.665300
2079.073833	11.781000
2084.990983	11.534100
2085.488550	11.530700
2084.834650	11.634500
2083.270417	11.734000
2087.239000	11.511800
2084.742800	11.682800
2093.995483	11.223300
2087.330583	11.637600
2079.802250	12.119600
2077.203150	12.282800
2085.054883	11.907000
2085.444300	11.930000
2079.622583	12.338700
2086.913000	11.934800
2100.240983	11.174100
2099.651033	11.217000
2090.109450	11.895500
2094.406767	11.726200
2095.963050	11.742500
2097.212667	11.671600
2100.334317	11.505700
2099.346150	11.565800
2100.804200	11.531000
2100.172233	11.696700
2103.959300	11.494100
2103.988483	11.508000
2104.324517	11.531500
2106.035867	11.547100
2110.148283	11.331000
2103.982783	11.732100
2106.986733	11.566500
2106.047117	11.624500
2114.628367	11.125900
2113.841233	11.226300
2106.456517	11.671900
2105.245867	11.779300
2111.711183	11.384400
2108.191033	11.725500
2106.184117	11.906500
2103.778400	12.149900
2109.626567	11.817100
2115.354783	11.485500
2116.633700	11.437400
2114.793650	11.659400
2113.867350	11.815700
2107.623133	12.215100
2111.504467	12.052600
2114.770667	11.884900
2116.878167	11.769400
2115.876017	11.886400
2113.863767	12.143800
2116.944000	11.996300
2119.875867	11.859400
2121.741817	11.758300
2119.327317	11.931700
2119.407867	11.948800
2118.292883	12.190500
2116.479333	12.310800
2116.804817	12.303100
2124.610933	11.851200
2134.426800	11.331200
2135.182267	11.302000
2133.145717	11.442400
2120.932683	12.178800
2128.734650	11.905100
2133.989833	11.605800
2128.716517	11.982100
2126.294333	12.159000
2132.928917	11.857900
2126.754017	12.235000
2132.231967	11.920900
2132.643233	11.929800
2131.931283	12.046800
2135.693417	11.931100
2138.589417	11.776300
2145.873033	11.364600
2142.832517	11.535400
2137.442900	11.873000
2131.028817	12.298900
2138.632167	12.011800
2134.431950	12.293300
2144.774933	11.719500
2143.402850	11.793800
2142.803483	11.966100
2143.235483	11.991900
2144.025233	11.973000
2146.891833	11.821200
2140.363750	12.242000
2140.589267	12.235600
2148.510667	11.785600
2149.157567	11.758300
2143.997600	12.293300
2147.385317	12.117700
2143.907467	12.366100
2148.151600	12.132200
2150.280583	12.054900
2154.680933	11.820600
2148.842550	12.160400
2151.722717	11.988400
2150.442267	12.115900
2160.968017	11.566000
2154.433950	11.968100
2155.023717	11.938000
2159.937683	11.648100
2154.876800	11.945600
2158.678817	11.758300
2157.854667	11.935300
2157.810100	11.951600
2166.013933	11.506500
2163.367633	11.670600
2175.148600	10.983800
2165.630567	11.566600
2164.456500	11.806100
2176.171467	11.111800
2166.993167	11.644600
2161.281267	11.981800
2157.817017	12.360700
2161.716700	12.149900
2169.975800	11.674400
2173.319667	11.475700
2159.201100	12.374600
2164.088333	12.105600
2171.622150	11.702300
2166.159800	12.042800
2167.507183	11.994300
2168.207033	11.972700
2172.018100	11.780900
2166.112300	12.156200
2168.260233	12.066000
2167.569483	12.181800
2170.171317	12.055900
2174.060183	11.865300
2174.126883	11.905800
2169.517050	12.325400
2172.721233	12.173400
2171.158517	12.348700
2168.526467	12.527200
2170.961183	12.400500
2184.460983	11.617500
2182.637717	11.866300
2188.212717	11.553700
2182.423317	11.921500
2184.989967	11.768800
2178.108667	12.195400
2182.650000	11.947100
2181.428883	12.137400
2180.490400	12.211400
2180.237917	12.286300
2173.273683	12.709800
2182.673700	12.305300
2184.481967	12.259900
2182.807367	12.410800
2186.951200	12.204500
2189.013683	12.114900
2185.231583	12.342000
2188.694183	12.208500
2201.158250	11.608100
2199.091083	11.760900
2191.040067	12.267400
2190.457567	12.324700
2188.814667	12.457600
2188.246067	12.559000
2189.105250	12.652700
2191.699233	12.516600
2186.872400	12.821300
2186.032950	12.865400
2195.798283	12.452700
2202.372383	12.082800
2195.934817	12.472600
2197.325967	12.398200
2198.684283	12.467100
2194.611233	12.782400
2199.463250	12.580400
2208.469367	12.039400
2207.733033	12.116700
2206.930650	12.143900
2207.535433	12.183600
2207.259633	12.229800
2206.940517	12.316300
2208.502000	12.240800
2212.980800	11.989100
2210.046133	12.198900
2205.832783	12.521100
2206.243717	12.617800
2208.046567	12.517600
2201.369883	12.945900
2212.760800	12.297800
2218.251000	11.972900
2211.846800	12.418400
2206.597567	12.861700
2213.955267	12.476800
2210.108833	12.744300
2216.273100	12.385100
2221.120867	12.094600
2218.227300	12.251300
2222.254733	12.104400
2214.740400	12.564800
2210.578317	12.822100
2216.629683	12.478800
2207.930067	13.188400
2219.704750	12.506300
2220.618367	12.479500
2220.329100	12.512900
2225.892117	12.387700
2229.669583	12.128100
2236.833817	11.725900
2230.000783	12.170100
2219.752750	12.805400
2225.755750	12.528200
2226.681650	12.487700
2223.383483	12.689100
2216.760983	13.131600
2228.317367	12.598600
2221.793500	13.016300
2232.281767	12.468700
2235.584367	12.278800
2231.557800	12.522200
2229.906617	12.628900
2235.033767	12.401200
2233.632300	12.500600
2235.514117	12.407200
2239.528050	12.166100
2243.411450	12.067700
2238.017417	12.463000
2243.664700	12.200600
2246.678917	12.016000
2241.047433	12.366000
2240.848783	12.405000
2240.417783	12.644700
2242.708100	12.489500
2243.448483	12.450600
2246.125467	12.318400
2245.466983	12.476100
2241.331783	12.793500
2249.215550	12.374600
2250.663200	12.351500
2253.768883	12.181800
2239.863300	13.044800
2249.122817	12.510100
2252.911683	12.289800
2255.607850	12.133700
2251.445433	12.476400
2248.763400	12.646400
2252.761900	12.435500
2254.653600	12.332600
2257.588450	12.299300
2259.429017	12.220600
2260.213633	12.239100
2251.712883	12.752700
2250.834217	12.835300
2260.143817	12.318400
2258.634550	12.601700
2255.674267	12.780100
2258.349933	12.644700
2263.042067	12.377800
2265.726850	12.259700
2261.955217	12.522700
2267.144917	12.228400
2257.921833	12.861000
2255.011867	13.073500
2262.193383	12.668100
2264.400483	12.551100
2263.299633	12.694500
2263.151183	12.730800
2271.326933	12.296100
2266.377400	12.610100
2261.649783	12.917100
2275.219317	12.114100
2266.043417	12.835300
2270.631567	12.571900
2271.534217	12.533200
2273.752783	12.403800
2268.731517	12.865300
2273.995550	12.590300
2278.877917	12.381400
2265.837000	13.184900
2282.725750	12.234500
2277.481183	12.547500
2276.731467	12.700300
2281.785233	12.484800
2283.363933	12.461100
2286.097383	12.302700
2288.471033	12.173400
2287.826483	12.221700
2275.618567	13.106200
2282.810833	12.716100
2278.261100	13.010600
2283.289767	12.725800
2281.229450	12.899900
2286.502083	12.716100
2285.734250	12.778400
2293.158917	12.407800
2281.388150	13.113500
2287.016700	12.798500
2288.130367	12.749200
2295.230917	12.517900
2290.795533	12.771000
2298.368517	12.354100
2299.752667	12.298900
2298.531583	12.496500
2301.360850	12.371900
2303.186650	12.318200
2292.604333	12.978600
2303.631950	12.332600
2296.726733	12.753000
2293.097750	13.019000
2301.137333	12.589200
2295.147417	13.000900
2301.612333	12.634500
2301.883583	12.613200
2293.522800	13.131200
2298.209233	12.969900
2298.038733	13.065600
2306.242683	12.595200
2306.227133	12.621300
2298.236817	13.139500
2304.236633	12.924300
2303.265317	13.026100
2306.722083	12.878700
2305.566817	12.951100
2301.763217	13.230100
2310.383583	12.744300
2304.367850	13.102700
2310.453550	12.758900
2313.442700	12.749600
2314.699833	12.696600
2307.463650	13.163900
2312.992300	12.830000
2318.325067	12.572200
2309.333950	13.120700
2329.781233	11.973300
2323.291517	12.367300
2324.721250	12.289100
2327.431000	12.145700
2312.163967	13.209400
2318.364150	12.869000
2327.487433	12.349800
2327.617250	12.349700
2321.115017	12.823000
2328.330617	12.485200
2330.872950	12.353600
2332.522783	12.262500
2325.749983	12.695400
2316.842933	13.384200
2323.329633	13.024800
2320.371817	13.247200
2323.540383	13.096500
2324.452300	13.106600
2322.920583	13.203300
2327.449517	12.939700
2327.410067	12.951100
2332.022467	12.764200
2334.313533	12.632700
2334.170217	12.640600
2330.961767	12.853000
2336.601583	12.675000
2336.409833	12.718500
2339.007450	12.647300
2339.272733	12.658200
2330.247583	13.221600
2337.877717	12.758500
2340.591733	12.736800
2334.155150	13.173200
2335.376350	13.174400
2343.947217	12.681400
2341.569467	12.835000
2340.301650	12.915500
2339.476567	13.112800
2336.596333	13.352100
2344.606617	12.887500
2343.153033	12.974400
2350.849950	12.530000
2344.041950	12.944300
2337.939800	13.335500
2338.750700	13.327700
2336.031883	13.525800
2337.442733	13.492800
2347.498533	12.930900
2344.232917	13.268800
2350.869217	12.892000
2340.547767	13.519300
2349.786950	12.973700
2351.387800	13.015700
2356.040367	12.804700
2355.809100	12.900200
2355.089250	12.941000
2359.510467	12.712900
2353.801233	13.057800
2352.388467	13.268800
2351.513883	13.405200
2369.823667	12.366700
2359.515350	13.024400
2358.664350	13.077800
2357.641167	13.159300
2361.501350	13.037300
2357.430000	13.358000
2357.627517	13.355800
2366.051983	12.862800
2367.874533	12.811800
2366.973250	12.901100
2365.677367	13.005100
2365.221567	13.061800
2372.460283	12.647700
2368.254850	12.891200
2361.197800	13.344500
2364.598667	13.310800
2359.132150	13.645100
2366.679183	13.223100
2366.459683	13.232100
2371.931067	13.056400
2370.096250	13.197500
2369.643417	13.268800
2374.498933	13.001700
2371.916417	13.251400
2375.394683	13.056600
2376.212450	13.032500
2375.733583	13.059000
2376.245000	13.184900
2378.512733	13.059600
2382.506150	12.845000
2386.892500	12.570200
2378.866083	13.122000
2383.436067	12.913300
2372.934867	13.604500
2381.445883	13.109400
2382.048883	13.105800
2379.888900	13.241300
2387.664633	12.818400
2389.308550	12.760700
2382.384517	13.188400
2389.669883	12.817800
2382.907717	13.229500
2384.742183	13.132500
2380.850167	13.422700
2390.201083	13.013100
2400.161767	12.441700
2390.490100	13.083200
2387.939067	13.239100
2385.206267	13.413400
2385.777500	13.406600
2390.497667	13.317100
2389.573300	13.388900
2387.957683	13.517100
2391.967683	13.309500
2389.033750	13.565000
2401.512950	12.866900
2407.433367	12.628900
2403.651100	12.821600
2399.417467	13.087900
2393.529617	13.440400
2396.481217	13.345300
2394.687850	13.566800
2399.652767	13.300300
2402.005883	13.228500
2390.614867	13.919200
2398.903250	13.457000
2401.738883	13.315200
2402.539250	13.451900
2400.496350	13.627100
2398.878133	13.771200
2408.338683	13.217100
2405.115283	13.566600
2410.218333	13.308300
2409.677933	13.376700
2408.356233	13.485900
2409.456083	13.426200
2411.177750	13.331000
2412.744950	13.468100
2409.017033	13.665900
2407.839367	13.786300
2410.680850	13.640300
2420.211883	13.145400
2410.754583	13.808400
2423.356350	13.174400
2421.200067	13.289800
2420.705133	13.322100
2420.068200	13.353500
2412.694950	13.797800
2415.906417	13.716400
2421.017750	13.452800
2422.416300	13.418300
2426.226067	13.190200
2415.843400	13.828700
2425.670500	13.271300
2427.624233	13.287000
2426.491717	13.402600
2426.468517	13.483900
2432.000950	13.153400
2425.854700	13.545500
2427.500717	13.448500
2425.949133	13.698900
2421.856267	13.981600
2428.700683	13.594800
2423.373933	13.942500
2436.713667	13.215100
2435.347983	13.416300
2429.514100	13.794800
2435.395333	13.493700
2436.374750	13.450700
2440.087200	13.231100
2441.763050	13.153400
2434.068267	13.756900
2431.851733	13.929000
2436.712750	13.693700
2427.541367	14.259700
2437.799300	13.662200
2440.779417	13.491400
2432.690017	14.032900
2432.468250	14.078000
2434.652567	13.961200
2445.874667	13.318000
2446.076483	13.298700
2440.618300	13.626200
2436.709083	14.076600
2439.288067	13.940800
2440.442817	13.905700
2441.897467	13.809400
2430.949783	14.674500
2443.814533	13.870500
2444.440433	13.857000
2443.534333	13.905600
2442.394400	14.048000
2447.748300	13.853000
2453.122833	13.587900
2450.615267	13.770400
2449.888517	13.817500
2453.038600	13.642700
2456.653633	13.434900
2449.042817	13.995100
2456.737667	13.568200
2454.603433	13.805700
2452.584867	13.952800
2460.551483	13.494900
2450.921483	14.074800
2455.683467	13.961200
2456.658000	13.947200
2457.763067	13.950700
2461.677417	13.731100
2459.685167	13.895200
2465.098717	13.594000
2460.497233	13.942800
2463.355917	13.776400
2462.600900	13.841600
2467.100617	13.605400
2464.708633	13.891200
2467.529867	13.756300
2461.315950	14.150000
2461.966683	14.150700
2464.478783	14.039400
2474.683617	13.495000
2470.954200	13.762700
2475.823417	13.528300
2473.031533	13.733400
2475.484433	13.624800
2480.736400	13.343900
2476.577717	13.604500
2479.476300	13.496600
2473.346117	13.989400
2475.323817	13.888600
2474.053417	13.971700
2479.249317	13.680400
2472.936667	14.120200
2478.176150	13.857200
2482.392850	13.651700
2481.888633	13.707600
2479.996150	13.856300
2483.130450	13.681700
2478.605500	14.084600
2479.352900	14.084900
2483.141150	13.945400
2483.339633	13.954200
2492.279700	13.452800
2485.438783	13.863300
2484.440150	14.108000
2488.377133	13.851600
2493.352767	13.583500
2490.629467	13.731700
2489.699083	13.868400
2499.715983	13.373100
2496.856100	13.558100
2491.894900	13.884500
2491.679067	13.896100
2494.853600	13.722500
2495.390450	13.694600
2497.042900	13.748900
2496.923750	13.784300
2498.367450	13.782800
2499.976133	13.698900
2496.332583	13.903500
2498.023983	13.819200
2499.448650	13.895600
2499.070467	13.961800
2503.675667	13.737400
2504.412067	13.705900
2500.734983	13.926000
2499.120117	14.039500
2497.330767	14.365000
2495.883467	14.448700
2504.325517	13.967200
2505.097917	13.944400
2513.315767	13.530100
2511.833617	13.697200
2515.071767	13.510900
2508.728533	13.915500
2505.727200	14.141000
2508.229933	14.034600
2515.507917	13.643500
2513.793350	13.757900
2514.164050	13.753100
2501.740050	14.550200
2507.198533	14.243100
2505.118717	14.407000
2503.656850	14.524100
2511.094967	14.238700
2516.814717	13.939300
2521.066500	13.706600
2507.986150	14.511500
2518.973967	13.908700
2525.655500	13.540400
2514.058850	14.281100
2521.410100	13.866200
2524.146033	13.719900
2519.722350	14.001800
2522.250417	13.912000
2516.633333	14.282400
2526.732817	13.744000
2529.491533	13.621800
2520.863433	14.155200
2522.467667	14.069800
2525.767333	13.906800
2525.754150	13.946600
2524.224783	14.185200
2524.916417	14.254300
2536.674717	13.615000
2539.210100	13.489700
2534.487483	13.794300
2539.199200	13.552100
2529.844717	14.122300
2534.180100	13.886000
2517.614017	15.038200
2523.713367	14.707900
2532.818283	14.172600
2544.993250	13.479500
2538.599917	13.860100
2535.558783	14.165400
2536.234733	14.159700
2533.824667	14.383900
2532.228000	14.494400
2541.914417	13.908700
2539.583517	14.052400
2535.435233	14.437500
2539.025750	14.262800
2542.584483	14.070300
2546.186483	13.893300
2537.603533	14.427600
2544.503733	14.025900
2540.602733	14.348400
2541.988000	14.343500
2547.264433	14.055600
2545.785917	14.166400
2547.878667	14.072200
2544.438067	14.308600
2546.462517	14.244400
2553.044900	13.932500
2551.367150	14.033900
2552.779350	13.952300
2552.349517	14.018500
2546.572533	14.523900
2550.586850	14.329100
2554.567133	14.159400
2553.471650	14.235500
2554.083333	14.218200
2551.837317	14.366800
2546.213217	14.860900
2550.311250	14.669300
2565.263667	13.896100
2563.407250	14.019800
2561.021250	14.171600
2560.538917	14.220100
2564.621550	14.139500
2565.141150	14.110700
2562.730850	14.281100
2559.173900	14.488100
2559.337167	14.569600
2564.979900	14.340500
2564.962083	14.360700
2569.782533	14.105700
2560.492083	14.663400
2566.083933	14.349300
2567.908300	14.294900
2570.016133	14.287500
2564.612683	14.652600
2562.898033	14.790600
2565.914033	14.629500
2568.333783	14.521500
2565.278533	14.716500
2569.864683	14.600100
2566.185367	14.856100
2577.162817	14.231800
2577.557383	14.224800
2572.426583	14.598600
2574.381683	14.498400
2571.913933	14.720400
2572.572167	14.704600
2574.346917	14.599300
2584.615467	13.992700
2569.082683	14.969100
2588.519000	13.872800
2578.818117	14.540800
2582.821383	14.307300
2580.003083	14.493900
2572.584950	14.966300
2582.554667	14.527600
2589.047483	14.190600
2584.276650	14.472200
2584.238867	14.508100
2586.119917	14.456800
2593.937867	14.098900
2591.772967	14.263000
2589.435050	14.426600
2586.687250	14.607800
2584.653767	14.767900
2588.639117	14.548600
2589.421983	14.599800
2595.509050	14.264600
2597.775033	14.157900
2600.479483	14.001300
2591.570050	14.551100
2589.108750	14.726300
2590.691317	14.782000
2592.110667	14.718100
2598.175667	14.378200
2596.381050	14.496200
2596.342250	14.625500
2606.452317	14.085700
2604.853117	14.254900
2603.298817	14.346400
2600.462967	14.516200
2598.725733	14.642400
2600.250400	14.593400
2605.457350	14.327000
2593.821367	15.079900
2602.805717	14.573800
2596.541833	14.989200
2605.126250	14.648000
2614.191167	14.138800
2609.863067	14.468500
2613.832033	14.260800
2602.996917	14.932000
2601.157117	15.048100
2611.938567	14.482900
2622.314650	13.866800
2612.383350	14.516000
2621.883550	13.961900
2610.943383	14.634000
2604.555150	15.026300
2615.260767	14.534200
2618.901250	14.381900
2612.733867	14.842300
2614.714883	14.705400
2616.019667	14.629900
2620.908750	14.357000
2617.525133	14.719500
2618.757283	14.738100
2619.855983	14.696400
2621.794900	14.615900
2614.591467	15.060700
2624.505533	14.490000
2622.487983	14.631600
2622.957933	14.747100
2618.567767	15.018700
2619.780517	14.962600
2620.035017	14.959600
2623.454000	14.909000
2627.641100	14.698100
2632.270217	14.494900
2624.354833	14.993700
2625.348467	14.954500
2625.453417	14.965600
2635.896000	14.464100
2635.456117	14.545300
2625.354117	15.190600
2628.972083	14.968800
2624.866300	15.235700
2636.703533	14.544000
2632.912400	14.982200
2628.948350	15.278000
2633.456117	15.088900
2639.112900	14.726300
2642.857750	14.574200
2644.220367	14.614000
2642.357750	14.747900
2642.253250	14.815400
2648.244933	14.475900
2641.807783	14.880300
2645.701883	14.648700
2647.529417	14.549800
2656.732300	14.011400
2662.164133	13.842900
2651.995883	14.456100
2653.662417	14.398300
2654.841317	14.324800
2653.449217	14.559100
2645.580217	15.016600
2644.928450	15.096200
2652.940050	14.646500
2654.941067	14.682700
2651.516150	14.932400
2652.269050	14.910500
2644.498317	15.401200
2656.309850	14.737400
2658.624817	14.594500
2662.923700	14.412200
2658.747400	14.682500
2660.198183	14.653500
2654.449767	15.015100
2661.038317	14.650900
2656.570950	14.933000
2652.547950	15.221000
2667.555733	14.504400
2661.875250	14.857400
2660.016633	14.961900
2660.786100	14.921900
2657.189467	15.285400
2660.215917	15.165100
2665.411333	14.946300
2672.814917	14.517100
2667.991150	14.829200
2662.479383	15.163500
2659.677300	15.404900
2662.853900	15.268400
2667.628383	15.032700
2670.305600	14.887100
2679.974217	14.337100
2675.126617	14.607400
2673.632833	14.773800
2678.314483	14.589900
2670.237033	15.141300
2673.330233	14.964300
2675.384267	14.848300
2677.205567	14.746000
2672.915117	15.157000
2676.817167	14.962600
2671.446850	15.309500
2675.563083	15.069600
2684.177800	14.616800
2681.280350	14.906900
2673.319317	15.394600
2673.654933	15.384300
2673.946883	15.395700
2681.169950	15.115100
2678.146933	15.340200
2680.319183	15.269400
2677.471700	15.463100
2698.112817	14.244400
2687.350017	14.867800
2683.920000	15.214700
2680.458333	15.487800
2679.985517	15.623800
2681.249200	15.542300
2677.255567	15.786400
2689.260567	15.099700
2686.772017	15.340300
2689.166300	15.302600
2695.467800	14.954900
2696.615467	14.943700
2688.332833	15.462600
2691.478950	15.286700
2695.645767	15.071500
2706.265783	14.604900
2704.270867	14.751400
2700.824800	15.008900
2706.074767	14.714500
2702.563350	14.934800
2702.422950	14.961800
2711.275950	14.464700
2706.410133	14.760000
2702.446033	15.212100
2704.159467	15.147400
2712.729683	14.656800
2707.700150	14.952800
2694.535767	15.802900
2710.510783	14.862600
2703.657667	15.241000
2707.487167	15.036100
2698.608983	15.724800
2697.744317	15.827800
2708.004883	15.251400
2717.924717	14.679700
2714.892383	14.874600
2717.154883	14.744700
2712.282100	15.115100
2720.053550	14.772800
2720.773483	14.741400
2714.909183	15.103800
2721.537650	14.729600
2730.466850	14.330300
2721.245967	14.911300
2714.171500	15.373400
2716.563917	15.234400
2720.065667	15.044500
2719.917017	15.079600
2714.420467	15.405100
2718.044050	15.207200
2721.716000	15.206300
2730.256083	14.695500
2727.775483	14.871300
2723.530883	15.132600
2724.337983	15.254100
2726.718383	15.148200
2723.708150	15.368900
2725.743800	15.236000
2732.528750	14.951600
2722.699283	15.569100
2735.251183	14.856300
2732.925867	15.025900
2732.437000	15.055100
2725.380267	15.517000
2746.218433	14.391300
2735.663350	14.951600
2748.183750	14.171000
2736.909933	14.902500
2737.516467	14.912800
2728.227083	15.533400
2734.349500	15.226700
2746.974950	14.506700
2741.755133	14.838300
2737.436983	15.138300
2732.791917	15.418300
2737.661400	15.166400
2733.927150	15.455300
2739.315317	15.352900
2742.751150	15.185000
2745.602600	15.032000
2745.551433	15.047400
2753.996733	14.677800
2750.117817	14.948200
2745.801933	15.252600
2744.628867	15.334600
2740.172350	15.603800
2745.143600	15.296600
2753.332617	14.994400
2751.733417	15.092200
2743.054217	15.637300
2747.637517	15.372700
2753.312700	15.121400
2755.273533	15.066300
2749.891983	15.414000
2748.886950	15.495800
2747.795283	15.615600
2753.154800	15.360500
2750.338933	15.561600
2759.860083	15.010800
2760.161817	15.021400
2762.802133	14.874600
2757.870350	15.195800
2754.532667	15.419800
2753.685933	15.509700
2754.867700	15.590000
2756.751433	15.496200
2755.700783	15.601800
2753.158317	15.786400
2761.033717	15.469900
2759.526133	15.616800
2763.232717	15.478300
2768.596300	15.154400
2755.510500	15.988400
2751.083767	16.283500
2766.137533	15.543300
2769.671033	15.405300
2777.163550	15.083600
2767.429517	15.644800
2766.425000	15.731900
2774.144417	15.307600
2772.297533	15.462300
2776.106800	15.275900
2770.857983	15.604800
2765.926950	15.928100
2779.833667	15.148300
2779.882917	15.290800
2778.605083	15.392700
2772.160383	15.834900
2777.969667	15.492100
2774.550550	15.732800
2777.147783	15.603300
2778.995383	15.660600
2773.008733	16.041000
2786.688267	15.252400
2783.471283	15.431400
2786.166000	15.423200
2789.418700	15.267200
2783.876283	15.662700
2779.644083	15.933900
2773.434783	16.300500
2778.882850	16.008800
2782.939650	15.915200
2793.613917	15.341500
2780.925217	16.153600
2798.879600	15.107900
2789.945333	15.675900
2788.704700	15.763700
2804.345733	14.999700
2802.003917	15.178000
2807.067317	14.886700
2797.766833	15.441600
2798.869417	15.414400
2797.707083	15.608700
2789.109017	16.165600
2801.291283	15.504000
2793.917933	15.967800
2802.260600	15.482900
2803.669783	15.424500
2801.659700	15.713000
2808.727050	15.299300
2808.696133	15.303900
2804.994700	15.514400
2807.595867	15.561700
2802.328250	15.892700
2802.427583	15.958800
2805.422783	15.792000
2811.219917	15.528400
2797.571317	16.359700
2810.132917	15.637600
2811.177283	15.585000
2806.320117	16.031200
2804.299617	16.193800
2798.520950	16.515500
2808.115950	15.962300
2817.352550	15.494600
2819.294383	15.487500
2799.455400	16.709600
2811.645617	16.030300
2814.783600	15.862100
2816.215350	15.787100
2815.408767	15.887800
2822.028383	15.617400
2819.325750	15.795200
2821.014850	15.755900
2818.581967	15.906700
2814.666200	16.155200
2811.252050	16.369700
2820.049683	15.973200
2826.185867	15.659200
2823.951267	15.838900
2824.841100	15.790100
2813.560850	16.493900
2816.511017	16.347700
2828.687683	15.800400
2834.296633	15.478500
2826.975283	15.933300
2820.425850	16.328000
2836.178867	15.534700
2833.776500	15.709100
2829.529950	15.985700
2833.806917	15.741700
2835.897733	15.611400
2833.842883	15.760500
2827.351367	16.222300
2830.173450	16.253900
2840.512833	15.643500
2843.376583	15.471000
2833.348550	16.079300
2843.748250	15.518900
2845.847500	15.387800
2844.851183	15.495600
2842.398350	15.641000
2843.693817	15.609100
2844.083150	15.592400
2839.780833	15.987000
2838.542883	16.104600
2852.213300	15.327500
2848.331267	15.563200
2839.895533	16.076700
2847.169367	15.664300
2845.045100	15.910400
2842.151033	16.135200
2845.987367	16.019800
2840.460533	16.368600
2849.294450	15.864800
2854.318867	15.580600
2844.411783	16.195500
2858.497433	15.417900
2850.195467	15.937900
2854.703233	15.686400
2852.453250	15.861500
2848.960533	16.201500
2858.234483	15.686400
2852.052983	16.158000
2863.588917	15.451600
2855.114833	15.981900
2858.408467	15.808900
2859.429367	15.903700
2863.222417	15.705700
2860.674067	15.950800
2858.636667	16.085800
2859.783000	16.039400
2855.194400	16.310900
2859.825083	16.221000
2866.707667	15.834700
2869.023850	15.702500
2860.653467	16.208500
2865.849833	16.011600
2866.540517	16.057300
2874.451783	15.639600
2876.215117	15.553600
2868.745267	15.991000
2869.192833	15.979200
2865.238567	16.280500
2864.270383	16.445100
2867.106217	16.325800
2870.997900	16.145900
2869.603467	16.253200
2873.113133	16.053600
2874.284650	16.014200
2869.576150	16.478000
2875.000483	16.165800
2878.475167	15.980500
2878.179083	16.018800
2875.251883	16.324500
2879.446500	16.100300
2885.031183	15.820500
2879.521967	16.137100
2868.026050	16.863800
2882.766833	16.001100
2875.911917	16.599400
2874.814250	16.687700
2875.428550	16.666100
2883.387317	16.204600
2881.490567	16.392400
2879.410667	16.548100
2873.901383	16.919400
2877.359233	16.732500
2879.770717	16.651900
2883.304500	16.439900
2888.755300	16.179800
2890.126200	16.159700
2894.933900	15.887000
2890.762267	16.175800
2878.522233	16.944300
2888.264250	16.384400
2890.968800	16.291400
2903.604600	15.687800
2901.496467	15.832600
2903.730800	15.702500
2901.805433	15.829200
2890.949733	16.626300
2900.975400	16.084100
2904.898900	15.898700
2900.925083	16.147500
2901.964867	16.083700
2909.829650	15.605900
2897.111233	16.475100
2899.337567	16.379500
2887.970283	17.185800
2895.256333	16.792200
2910.778133	15.912300
2908.764600	16.004900
2909.804567	15.972100
2903.147067	16.409500
2910.738600	15.998000
2908.433433	16.172100
2909.782517	16.132000
2905.414217	16.419100
2912.079550	16.049600
2910.659317	16.293700
2914.226950	16.091300
2909.982200	16.363400
2899.555317	16.998400
2909.744967	16.546300
2908.162900	16.688600
2914.202233	16.400100
2916.665350	16.259900
2920.226350	16.047500
2916.420850	16.276700
2915.365650	16.423100
2924.563683	15.918600
2919.394833	16.279500
2917.553167	16.390300
2919.482200	16.310900
2927.143383	15.859200
2926.270417	16.001500
2925.440667	16.077400
2910.935717	16.996300
2917.755983	16.598100
2920.553433	16.569300
2936.267200	15.711800
2927.392483	16.313400
2931.359700	16.148300
2930.286450	16.227800
2928.320400	16.386500
2922.367283	16.764900
2922.710783	16.824900
2929.381467	16.453300
2932.646567	16.426300
2929.480033	16.632900
2931.720283	16.532400
2939.423233	16.072500
2940.162700	16.178300
2940.802600	16.187900
2942.013067	16.151800
2947.209917	15.859300
2944.327617	16.033900
2941.075117	16.210900
2945.467333	16.125600
2941.836567	16.354900
2945.067917	16.203400
2942.974217	16.326700
2945.113500	16.394900
2935.734633	16.962600
2949.745067	16.174600
2941.071050	16.698500
2942.817117	16.814500
2940.824800	16.929200
2953.497750	16.220000
2951.346033	16.410600
2947.684100	16.646600
2955.553300	16.243100
2946.970383	16.771800
2953.329650	16.395500
2943.893517	16.971100
2945.712900	16.932500
2950.785633	16.648200
2960.483083	16.099200
2957.253500	16.283000
2962.083583	16.138800
2957.933483	16.418100
2945.613350	17.237600
2953.021917	16.791400
2964.980550	16.087700
2957.925867	16.510900
2958.527583	16.610700
2960.770600	16.533200
2949.435350	17.280500
2961.555850	16.592900
2967.950933	16.227000
2957.479100	16.862600
2956.985950	16.929800
2960.384283	16.715700
2955.141650	17.286500
2962.123117	16.869400
2957.442083	17.187600
2964.254567	16.822300
2957.938417	17.235400
2968.415500	16.625600
2964.446000	16.861700
2963.411267	16.932100
2965.869217	16.814500
2963.531100	17.095100
2971.636367	16.655500
2967.020300	17.000900
2967.918150	16.979000
2970.730433	16.834200
2971.531500	16.806200
2976.477333	16.689900
2975.377017	16.772500
2975.875517	16.762000
2974.834600	16.819700
2964.507933	17.581500
2978.429200	16.813100
2964.378467	17.727100
2978.706483	16.898400
2966.393083	17.708700
2977.765133	17.033400
2980.354150	16.936100
2985.368250	16.748600
2983.016300	16.909700
2990.693517	16.496500
2988.929717	16.617400
2979.810800	17.171900
2979.037200	17.265500
2989.318933	16.790400
2982.969600	17.203400
2992.420833	16.714800
2982.201550	17.315000
2989.877300	16.872200
2990.519117	16.854700
2992.099650	16.931900
2980.167533	17.649000
2984.021417	17.450200
2983.260150	17.509100
2992.808817	17.051500
2994.268550	17.027900
2996.465017	16.954300
2992.199133	17.202000
2992.739567	17.197300
2992.776950	17.200100
2998.679050	16.946600
2995.184983	17.270100
3000.427033	17.013000
3002.180117	16.938400
3001.768067	16.962100
3004.647717	16.793500
3000.761000	17.064800
3005.549350	16.901900
3010.404183	16.642200
3015.502150	16.348100
3009.253350	16.753100
3010.192017	16.825600
3001.810733	17.347200
3011.655867	16.791700
3013.477250	16.688600
3007.276350	17.092400
3004.440367	17.261200
3016.545700	16.676000
3017.381750	16.667600
3013.490217	16.977100
3009.925600	17.214200
3018.613867	16.689700
3016.343433	16.829100
3012.952167	17.093500
3007.580333	17.442000
3028.230283	16.269000
3013.338017	17.126200
3014.600933	17.139600
3013.201400	17.327900
3030.217400	16.373900
3026.096417	16.616500
3019.712050	17.014400
3023.992550	16.780400
3019.458250	17.128400
3035.197700	16.373900
3022.797733	17.128500
3027.668250	16.823600
3029.901717	16.708600
3030.528800	16.818800
3026.620450	17.094200
3030.235350	16.880900
3023.790617	17.267800
3027.378767	17.056900
3025.821283	17.151600
3034.401850	16.845200
3039.084417	16.623700
3025.283483	17.492400
3032.004967	17.105200
3022.829867	17.674600
3028.688183	17.319300
3038.192117	16.878100
3033.958350	17.204300
3031.222367	17.420800
3038.644350	16.988900
3035.439033	17.186100
3033.400733	17.320800
3034.957367	17.370400
3032.290833	17.584800
3037.183133	17.317200
3039.183050	17.212400
3039.065600	17.289500
3037.701583	17.481300
3037.325483	17.545500
3046.502567	17.011300
3048.505967	16.938700
3038.058817	17.732800
3035.675950	17.911700
3035.372350	17.992400
3048.898850	17.213900
3051.700833	17.131500
3048.267717	17.332000
3045.174400	17.530400
3052.614117	17.069200
3044.919500	17.693300
3049.587317	17.401900
3045.053367	17.697400
3052.782083	17.257800
3054.790917	17.188600
3058.389517	17.004400
3056.631617	17.197300
3052.333400	17.452700
3043.915933	17.973600
3047.931933	17.712900
3038.317833	18.399900
3053.165033	17.614500
3053.657650	17.637500
3058.806750	17.361200
3052.206667	17.778700
3059.276033	17.364300
3055.656483	17.655900
3056.378450	17.729900
3061.089383	17.464800
3065.566483	17.236500
3064.649250	17.284100
3063.161417	17.525800
3060.070650	17.745800
3068.817533	17.314200
3062.963083	17.679900
3066.110117	17.502100
3068.279933	17.387400
3078.117250	16.879700
3075.099567	17.062300
3072.872167	17.214400
3070.679767	17.359900
3065.194233	17.836200
3073.982117	17.359900
3070.725650	17.630600
3069.369533	17.718300
3079.653367	17.133400
3071.674000	17.615900
3079.933867	17.231200
3073.981267	17.702800
3077.373817	17.575000
3085.182250	17.120000
3077.774967	17.578000
3073.733733	17.828700
3073.669400	17.894900
3085.288850	17.321300
3074.284367	18.015100
3086.380183	17.365200
3083.732000	17.539700
3083.071683	17.604900
3089.003217	17.295400
3086.917350	17.560100
3087.193450	17.574500
3080.375233	17.977800
3092.679083	17.241900
3098.665283	17.040900
3090.704017	17.568100
3093.490483	17.447400
3093.898067	17.449900
3094.106167	17.452900
3093.871550	17.471600
3097.918200	17.261300
3097.169733	17.323200
3103.371883	17.175300
3093.115450	17.795600
3091.880167	17.898700
3093.671883	17.813100
3102.534800	17.382800
3102.778900	17.474300
3097.583483	17.779500
3100.891650	17.578400
3104.302133	17.383500
3108.735700	17.124200
3099.069933	17.770800
3095.763017	18.166000
3104.334733	17.694300
3107.993983	17.490000
3109.310200	17.418800
3107.112350	17.559800
3110.835433	17.387700
3114.771167	17.333200
3113.432700	17.408600
3112.763167	17.468500
3114.655767	17.370400
3113.452800	17.408600
3110.309917	17.612500
3111.319400	17.562200
3113.982983	17.407500
3111.261033	17.862900
3111.442783	17.892300
3114.861833	17.683200
3113.792767	17.738200
3115.662783	17.658900
3120.356833	17.390700
3113.955983	17.769600
3115.039567	17.735500
3110.775500	18.159800
3109.096333	18.278700
3122.719017	17.513800
3122.301600	17.558600
3128.842117	17.207800
3121.519617	17.672200
3123.540800	17.586500
3122.197100	17.688200
3125.511867	17.512000
3125.761317	17.524900
3115.821100	18.148400
3119.316883	18.005700
3120.593450	17.951600
3119.380150	18.045500
3113.859617	18.405700
3122.322583	17.936100
3121.083183	18.026100
3124.006583	17.842500
3133.200983	17.333400
3134.072233	17.735700
3132.612467	17.875600
3140.008817	17.445100
3133.338150	17.854400
3139.341700	17.530100
3139.864950	17.513300
3133.745950	17.903000
3138.676867	17.646400
3142.100333	17.808900
3142.013517	17.839000
3138.993733	18.051600
3141.888750	17.905400
3141.481067	18.041800
3147.462100	17.689700
3145.497950	17.825000
3152.615633	17.434800
3156.187267	17.306800
3152.730800	17.633300
3149.346183	17.867700
3143.649533	18.276900
3147.443800	18.077300
3157.357650	17.500400
3155.280950	17.632700
3145.860933	18.239400
3150.399400	17.994200
3154.509683	17.780700
3156.014550	17.729300
3159.779300	17.826200
3162.335750	17.726300
3153.851667	18.263200
3158.864383	17.981100
3156.619083	18.105900
3154.153933	18.246300
3157.975600	18.110600
3159.500483	18.045000
3162.899250	17.891900
3149.965383	18.702000
3156.054267	18.380500
3153.596567	18.554500
3169.566933	17.823600
3165.179767	18.098200
3169.860033	17.832000
3169.371000	17.912600
3165.781833	18.201000
3163.501467	18.467800
3162.898100	18.560000
3167.372733	18.330000
3171.543850	18.085700
3170.092200	18.190700
3169.372967	18.250000
3174.029733	17.969700
3165.191800	18.513800
3161.508450	18.750800
3164.021900	18.677900
3172.510617	18.426400
3185.342433	17.673900
3180.036333	17.994600
3176.266283	18.233400
3175.189717	18.297700
3175.700650	18.260600
3180.322850	18.002900
3169.909967	18.631900
3185.565317	17.893600
3175.540900	18.547700
3180.337300	18.353900
3172.026717	18.876100
3172.758650	18.855800
3177.559533	18.603600
3177.154533	18.652800
3184.607567	18.221200
3192.398950	18.017300
3185.877250	18.534200
3189.332683	18.408900
3184.215150	18.719600
3181.211850	18.917000
3186.930783	18.588600
3199.114017	18.020800
3198.578833	18.055800
3187.331083	18.743100
3188.306217	18.696100
3190.426050	18.625700
3192.193783	18.658800
3192.610367	18.643000
3198.655233	18.302700
3196.998050	18.413000
3194.398100	18.564800
3194.743117	18.569800
3208.136567	17.793100
3197.300933	18.490800
3201.376250	18.509900
3200.469300	18.582800
3200.949900	18.553700
3206.625800	18.239600
3208.307633	18.146100
3205.690267	18.314500
3207.082950	18.473000
3206.394500	18.534800
3206.432117	18.533500
3205.852183	18.588000
3204.161183	18.816600
3204.019150	18.852500
3215.998283	18.146700
3214.395300	18.231800
3207.674583	18.645000
3218.457033	17.987700
3214.910950	18.220100
3218.770550	17.996300
3209.854017	18.762100
3218.857333	18.373800
3216.095883	18.580500
3220.201317	18.363700
3218.362283	18.473400
3220.366367	18.352600
3224.907583	18.094200
3219.672850	18.413900
3216.250117	18.669700
3220.211750	18.619400
3220.524767	18.624700
3226.902600	18.271100
3232.328200	17.951600
3225.653333	18.363000
3223.612317	18.478900
3223.057700	18.518600
3218.905883	18.780900
3214.699217	19.050100
3223.584250	18.532700
3226.804267	18.573700
3215.559600	19.341800
3229.579783	18.742500
3231.840333	18.645300
3233.368183	18.571800
3238.482400	18.273800
3232.440800	18.717200
3238.672600	18.365300
3249.198567	17.760700
3235.081733	18.604800
3240.675600	18.273500
3230.965267	18.867400
3236.724833	18.607200
3250.183267	17.998600
3239.938467	18.629200
3239.031483	18.690900
3248.655650	18.208100
3246.889500	18.421400
3243.313750	18.668000
3240.710083	18.845400
3243.206900	18.699800
3237.742250	19.039400
3243.657967	18.702700
3253.203733	18.138600
3247.984550	18.455300
3252.822933	18.182400
3247.426350	18.530000
3244.487167	19.045900
3252.308583	18.653700
3261.323800	18.124700
3247.859833	18.938700
3254.140100	18.586100
3247.167517	19.019500
3254.859467	18.670000
3258.504983	18.482400
3256.919383	18.604800
3255.684700	18.707000
3256.818717	18.692200
3252.125450	18.979100
3261.902050	18.422900
3257.914917	18.670600
3260.663417	18.829300
3259.362467	18.963700
3275.829550	18.068000
3269.558917	18.437800
3265.767883	18.687600
3275.771383	18.092100
3272.294000	18.343100
3273.316533	18.449400
3267.316050	18.806900
3259.646300	19.325300
3264.622617	19.048000
3271.229383	18.811500
3270.993583	18.871200
3274.305200	18.674300
3270.794017	18.894700
3272.665983	18.785400
3270.394400	18.950900
3280.125933	18.405900
3286.088700	18.035900
3262.163950	19.487900
3278.598567	18.513100
3279.658233	18.574800
3286.476483	18.213900
3275.592683	18.878400
3283.259450	18.424400
3272.440483	19.122300
3275.540517	18.955000
3267.951733	19.465800
3269.253983	19.444500
3284.699850	18.684500
3289.027600	18.559700
3288.609083	18.598500
3284.027700	18.893300
3288.200200	18.662600
3291.378400	18.495200
3288.971417	18.657700
3295.346317	18.306100
3286.965167	18.812800
3288.393767	18.727600
3288.364900	18.768200
3289.292100	19.043900
3281.757317	19.562200
3288.536350	19.195700
3291.052133	19.050300
3285.238083	19.422600
3291.788200	19.044200
3293.162950	19.195700
3305.917817	18.457600
3301.237683	18.723600
3302.867317	18.612700
3302.301117	18.722800
3300.659167	18.864400
3306.336433	18.552300
3300.797650	18.898700
3309.441417	18.410800
3304.483783	18.723600
3300.060617	19.159000
3304.909067	18.985900
3306.776783	18.901200
3308.776667	18.779200
3307.938783	18.867900
3299.417600	19.404200
3310.158617	18.766300
3304.478450	19.127000
3302.571267	19.394200
3314.473400	18.923600
3314.381783	18.970500
3313.355850	19.040300
3310.258100	19.253000
3319.841050	18.699800
3318.421717	18.793600
3312.288217	19.156900
3308.852033	19.384500
3315.892000	19.307900
3322.232450	18.943100
3320.179450	19.082600
3324.495500	18.837500
3325.666750	18.939800
3319.476617	19.345300
3332.150067	18.614500
3324.528117	19.067500
3325.158050	19.054100
3327.760717	18.920500
3328.385150	19.062800
3330.033233	19.014300
3336.716683	18.637800
3328.775533	19.122900
3331.343467	19.017400
3329.169550	19.153700
3331.019433	19.055100
3328.453167	19.197700
3333.940200	18.902000
3326.683050	19.377200
3334.109917	18.975400
3333.004567	19.064800
3341.627983	18.554400
3336.079850	18.868700
3339.017567	18.708400
3323.289000	19.663700
3334.868017	18.987400
3338.951783	19.119900
3348.688233	18.553500
3343.311733	18.878700
3338.569200	19.176200
3338.961217	19.300600
3343.772133	19.091400
3338.491433	19.466700
3344.252950	19.135400
3339.397850	19.456400
3340.707283	19.395600
3345.347617	19.273600
3348.820050	19.143200
3347.039700	19.284500
3352.597633	18.972900
3359.476483	18.568200
3349.574617	19.159900
3348.156167	19.273300
3353.666850	18.963800
3351.869983	19.126800
3352.630217	19.205500
3352.014417	19.287100
3352.312867	19.289500
3360.383183	18.807600
3359.990683	18.855600
3359.516133	18.877500
3351.360317	19.381900
3356.687917	19.071700
3354.627167	19.501000
3355.986000	19.483700
3356.779450	19.461200
3351.840833	19.777200
3363.877150	19.100000
3364.498983	19.084500
3361.675317	19.269700
3365.858700	19.010600
3363.434250	19.498400
3367.870383	19.272600
3366.761733	19.359300
3371.837333	19.058700
3379.845733	18.685200
3374.064050	19.022900
3369.884200	19.295000
3373.422850	19.097000
3376.416367	19.022200
3383.943917	18.672400
3375.285583	19.215900
3376.738783	19.156200
3376.663650	19.200500
3371.314250	19.544000
3380.618683	19.020900
3371.923683	19.558800
3376.294783	19.327200
3370.367717	19.696600
3373.954917	19.512700
3383.508350	19.326800
3389.310583	18.995700
3384.424283	19.308300
3381.406833	19.500900
3378.892650	19.865900
3385.407450	19.497500
3391.192633	19.179300
3395.182750	18.969800
3388.951150	19.480400
3384.403800	19.783100
3390.196583	19.467000
3394.064317	19.257400
3395.066917	19.222300
3397.488350	19.068200
3392.565383	19.374000
3390.766917	19.503400
3389.832867	19.566100
3397.385817	19.117300
