#Y dist(nm)	Y force(pN)
0.000000	0.239600
5.258367	-0.090800
-6.366750	0.582200
-10.148983	0.635800
-5.124983	0.243100
-11.159767	0.575100
-10.354050	0.528200
-12.924383	0.671200
-11.096350	0.559700
-11.815250	0.586400
-9.591717	0.450600
-11.352117	0.531600
-3.503833	0.065200
-7.014683	0.134500
-7.792183	0.013900
-13.349650	0.306200
-23.266317	0.891900
-25.490533	1.026100
-15.877183	0.445600
-13.470017	0.266100
-19.695683	0.577900
-20.743783	0.616000
-17.111000	0.378500
-22.640567	0.705300
-10.550017	-0.023700
-12.370700	0.066800
-21.902067	0.613800
-17.465667	0.343500
-26.386400	0.589400
-15.200833	-0.082100
-26.057000	0.569300
-25.405617	0.493800
-27.481617	0.491400
-30.946017	0.680100
-25.642133	0.366100
-29.071067	0.527700
-25.430733	0.275800
-30.243683	0.553900
-28.849383	0.316300
-33.120567	0.526200
-28.636200	0.271700
-36.330217	0.717600
-30.907467	0.386400
-30.265833	0.310900
-36.316233	0.583300
-36.770400	0.476000
-37.347167	0.506400
-33.406867	0.244200
-34.336467	0.311100
-38.380933	0.551500
-42.239250	0.781100
-41.070350	0.692600
-41.395967	0.711600
-39.886333	0.542500
-35.778950	0.269600
-38.584883	0.404200
-45.949567	0.845700
-35.191417	0.186300
-40.474417	0.481500
-45.266217	0.746400
-46.827317	0.826500
-44.081833	0.418600
-42.906700	0.324200
-43.193317	0.304500
-40.510450	0.152300
-44.259500	0.257000
-43.983550	0.192500
-49.961633	0.549700
-50.626517	0.566100
-51.470550	0.622700
-57.913467	1.000800
-55.512800	0.767000
-49.897883	0.322300
-51.487933	0.429100
-48.899250	0.271100
-52.648550	0.456500
-58.449400	0.768800
-59.238200	0.832100
-51.009500	0.314300
-60.701967	0.856200
-53.349383	0.203200
-55.088033	0.285700
-58.475533	0.484000
-58.215317	0.462000
-55.122983	0.253600
-43.618867	-0.457800
-54.349067	0.164700
-57.524867	0.350100
-56.982033	0.091000
-55.455150	-0.043600
-57.796533	0.081100
-66.780567	0.587100
-73.723500	0.974600
-68.325717	0.671400
-60.973333	0.224500
-64.418833	0.408100
-74.409950	0.807500
-73.231300	0.704300
-63.798967	0.108300
-68.974967	0.351300
-74.196533	0.663100
-80.506083	1.040800
-73.518583	0.623500
-74.709117	0.702600
-72.143667	0.546000
-68.084933	0.309400
-69.696000	0.375800
-71.651467	0.253800
-79.055383	0.663100
-80.261517	0.706800
-69.134400	0.041900
-81.926817	0.796200
-81.978917	0.783300
-83.421583	0.860200
-75.608417	0.408900
-86.093167	0.915600
-79.114933	0.463000
-72.715583	0.092200
-78.416283	0.418600
-79.467283	0.421600
-75.876133	0.165400
-75.801833	0.146800
-81.465217	0.446400
-84.798050	0.570200
-82.401417	0.400200
-84.392850	0.515600
-89.250550	0.797600
-86.250350	0.631400
-77.401100	0.053300
-75.439217	-0.101100
-81.962917	0.272400
-84.851200	0.419300
-88.923917	0.653400
-85.562967	0.341700
-88.014450	0.302600
-90.705633	0.432100
-87.468783	0.224800
-90.098867	0.380100
-87.339533	0.195100
-94.396200	0.618800
-89.163783	0.298300
-88.864817	0.249900
-90.518333	0.231700
-86.787333	-0.033200
-95.467367	0.436500
-93.964900	0.347000
-83.861700	-0.269800
-88.382233	-0.028400
-94.389500	0.323600
-87.109633	-0.111200
-89.656933	-0.182300
-89.289617	-0.293400
-108.527850	0.822500
-102.236983	0.425800
-98.639650	0.194300
-111.849483	0.983500
-106.971800	0.578600
-101.259983	0.162700
-106.510117	0.463800
-100.655950	0.101600
-111.479600	0.659900
-105.975317	0.284700
-111.605817	0.612300
-114.361383	0.747700
-110.338433	0.486400
-112.213733	0.596200
-104.554450	0.134000
-105.367317	0.162600
-108.550850	0.302300
-109.136700	0.130100
-107.790517	0.005700
-109.439300	0.084500
-109.300933	0.075400
-111.880117	0.198300
-115.799833	0.457600
-117.909150	0.569600
-108.875217	0.021300
-114.866300	0.294800
-116.801300	0.378500
-116.537250	0.343400
-114.265500	0.174200
-110.800950	-0.046900
-111.406333	-0.034100
-114.897850	-0.040300
-117.350100	0.074900
-122.128050	0.345800
-127.173100	0.627200
-122.864333	0.295300
-122.863267	0.244800
-121.751400	0.130100
-126.719700	0.465800
-128.055300	0.547700
-118.498717	-0.065100
-127.844883	0.434800
-133.438567	0.637500
-123.637350	0.044900
-126.857883	0.213400
-135.235633	0.704800
-122.638733	-0.060800
-130.536250	0.381500
-136.992533	0.670300
-132.075433	0.376600
-130.162567	0.260100
-129.491983	0.187000
-132.859450	0.225800
-129.018183	-0.025100
-126.392300	-0.207700
-133.564267	0.202500
-126.901917	-0.225300
-123.764617	-0.414000
-119.767450	-0.712600
-125.119667	-0.378000
-133.219900	0.094100
-137.232167	0.329100
-127.754150	-0.520300
-135.220783	-0.122300
-140.810250	0.243800
-137.282617	0.003600
-137.571633	0.070000
-141.207033	0.347800
-138.612417	0.229800
-135.398817	0.035100
-134.812983	-0.005600
-138.035167	0.175200
-137.057750	0.095000
-147.800450	0.799700
-145.944383	0.711700
-144.020300	0.692900
-134.875217	0.141000
-140.029133	0.468100
-142.451383	0.582400
-134.305600	0.227300
-128.480783	-0.123800
-128.581733	-0.134600
-140.806700	0.565400
-129.920567	-0.086400
-138.044883	0.387100
-131.329950	-0.013900
-131.301800	-0.017800
-135.519567	0.375600
-128.921800	0.071300
-129.174267	0.061200
-128.215967	0.013200
-133.677300	0.332900
-128.342467	-0.015000
-132.516717	0.237300
-135.263183	0.397600
-133.664550	0.410300
-128.856733	0.238300
-126.508300	0.097100
-128.122533	0.205300
-129.690583	0.285700
-128.071583	0.285100
-130.000267	0.415800
-136.049000	0.791900
-125.425200	0.140600
-127.956017	0.263700
-130.587950	0.408800
-124.402483	0.181000
-117.877133	-0.189200
-121.934933	0.071200
-123.417033	0.164200
-125.500717	0.291000
-121.396850	0.044000
-123.975283	0.178000
-120.082750	-0.068800
-122.311033	0.150400
-116.946250	-0.140500
-120.263033	0.055600
-127.064883	0.454300
-123.508700	0.282200
-119.021500	0.038000
-107.146650	-0.693400
-119.880983	0.061900
-122.267467	0.197400
-121.938933	0.190600
-116.635767	-0.006900
-119.409983	0.283600
-116.193767	0.115200
-115.588250	0.098000
-117.905383	0.226300
-122.645167	0.513000
-125.543483	0.688900
-119.755267	0.327300
-113.119883	-0.066200
-115.326317	0.303900
-113.550917	0.227100
-116.047867	0.363900
-117.482000	0.432800
-112.522467	0.138900
-120.285017	0.614400
-113.433333	0.223000
-113.522617	0.205800
-110.338433	0.220900
-112.352917	0.393300
-122.386017	0.994800
-114.541683	0.517600
-124.196683	1.079500
-116.016433	0.605200
-111.068433	0.296200
-116.079850	0.608600
-109.052550	0.304400
-107.385183	0.346300
-104.763050	0.179900
-112.771117	0.673800
-112.071600	0.664400
-107.167267	0.453300
-108.342000	0.511700
-105.277567	0.320400
-98.522667	-0.067800
-113.033167	0.778500
-109.891117	0.617100
-102.744633	0.361900
-101.963200	0.303200
-111.159917	0.861300
-103.503317	0.372300
-102.053717	0.400200
-100.748067	0.357300
-102.676083	0.464500
-101.477267	0.380100
-97.789450	0.170300
-105.988883	0.641200
-114.705183	1.159900
-110.968567	0.952500
-109.043383	0.829900
-106.672167	0.699900
-98.707067	0.489600
-100.626767	0.654300
-95.065450	0.292700
-98.058850	0.486200
-101.307633	0.661300
-101.674433	0.691900
-96.139267	0.432600
-100.957650	0.801500
-100.766367	0.791700
-102.809383	0.927700
-93.455783	0.393400
-91.297233	0.247600
-100.451550	0.831200
-92.673817	0.402900
-90.098100	0.249800
-99.881650	0.834500
-98.943917	0.802500
-91.632333	0.361900
-95.975600	0.620000
-92.013433	0.361900
-95.489683	0.584800
-87.620833	0.372100
-81.387017	0.002700
-88.849033	0.428500
-89.340600	0.468200
-86.379150	0.382700
-83.171767	0.216000
-81.518333	0.091600
-81.826433	0.111100
-96.329467	0.949800
-87.642517	0.444300
-87.878100	0.558500
-86.639083	0.539500
-91.602417	0.874200
-88.177917	0.637200
-91.102200	0.824600
-86.781483	0.592300
-78.404983	0.089200
-89.351433	0.715600
-90.533033	0.822100
-84.979100	0.564800
-82.099917	0.403200
-87.271800	0.698300
-87.341050	0.710600
-87.423083	0.707500
-91.002117	0.941700
-87.949867	0.767400
-79.742600	0.276500
-87.698067	1.013400
-77.596150	0.407300
-80.536250	0.598700
-78.335567	0.461400
-80.359600	0.638300
-82.248100	0.777200
-77.285367	0.464700
-83.015233	0.835900
-79.257983	0.616000
-75.517833	0.384100
-80.204900	0.822500
-76.345267	0.643800
-73.816733	0.491200
-75.725017	0.615900
-75.558933	0.603700
-80.959800	0.947000
-72.985500	0.478700
-77.832550	0.762800
-79.711067	0.999600
-79.901650	1.151600
-70.950850	0.628400
-84.093833	1.423900
-82.377050	1.336100
-76.603133	1.036000
-74.002333	0.871300
-75.368600	0.943100
-70.118917	0.686100
-71.034083	0.951700
-68.199800	0.780500
-66.777917	0.696600
-72.617467	1.030500
-74.631800	1.155200
-65.399917	0.595500
-61.918317	0.387600
-66.797433	0.663100
-63.387917	0.522300
-59.245583	0.287800
-73.255367	1.131900
-74.872283	1.213000
-65.314100	0.629600
-65.048767	0.622800
-54.048717	0.371400
-64.016650	0.917900
-55.282933	0.418600
-63.267400	0.890000
-62.029783	0.873400
-57.751933	0.669700
-54.205350	0.430700
-55.348867	0.491400
-57.133700	0.612200
-62.922450	0.961400
-64.711217	1.074600
-55.641300	0.520700
-62.099417	0.970200
-49.687683	0.418600
-49.339117	0.371700
-53.404633	0.612700
-55.118317	0.716700
-59.711583	1.018600
-51.940300	0.533300
-55.434850	0.738500
-62.957917	1.210200
-46.640983	0.474100
-43.893867	0.324900
-48.887300	0.587900
-42.994450	0.275000
-50.923333	0.722200
-49.466900	0.624500
-44.068133	0.418600
-47.828183	0.674800
-51.515350	0.896300
-47.135217	0.622800
-51.019133	0.956800
-49.207767	0.897900
-51.293817	1.008300
-49.390500	0.908300
-49.509050	0.905600
-56.644683	1.321300
-52.249533	1.043200
-49.953683	0.919900
-49.625800	1.002500
-44.786167	0.886200
-38.302583	0.490300
-38.180483	0.493300
-42.780783	0.734200
-41.062100	0.630800
-40.125467	0.576600
-45.250067	0.856500
-41.020217	0.631200
-34.794400	0.369200
-41.514067	0.790200
-52.437283	1.432300
-40.879800	0.737300
-39.226783	0.661600
-39.615333	0.680200
-39.075383	0.733300
-41.137450	0.868400
-37.984567	0.698100
-33.960783	0.482200
-43.249400	1.070900
-38.311733	0.812800
-41.618217	1.028400
-34.038783	0.581200
-39.283683	0.887800
-34.846067	0.626700
-41.684517	1.028400
-40.157050	0.960800
-34.021500	0.735500
-35.392650	0.954800
-31.451150	0.742400
-28.965367	0.609900
-30.575433	0.707500
-33.721233	0.919900
-32.090483	0.817900
-35.390333	1.002400
-32.141267	0.857100
-22.166667	0.474300
-29.203433	0.914200
-28.053633	0.861100
-33.155433	1.169500
-21.976767	0.509100
-22.837383	0.543700
-25.890383	0.896500
-20.162733	0.569800
-28.274083	1.027600
-21.711383	0.648700
-24.695850	0.935000
-27.366133	1.122700
-15.031783	0.403900
-25.123333	1.027000
-22.753417	0.897900
-20.551250	0.771800
-26.872233	1.261000
-18.058950	0.773600
-23.711117	1.116600
-20.427350	0.917900
-19.492050	0.850400
-17.194350	0.703100
-9.562733	0.252100
-9.767683	0.243100
-19.624917	0.827700
-20.685917	0.918000
-20.321567	0.969300
-12.700900	0.588500
-20.249817	1.035600
-24.318933	1.294900
-13.940550	0.689600
-22.220350	1.184900
-16.899917	0.880800
-11.373067	0.709200
-17.751750	1.099700
-11.410867	0.747300
-17.802000	1.132700
-6.306150	0.568400
-7.842583	0.680800
-15.451217	1.164600
-10.390467	0.867000
-9.750667	0.834000
-13.010933	1.047400
-8.224300	0.781400
-10.934400	0.932600
-11.332933	1.029100
-10.816433	1.048600
-8.101600	0.911600
-9.591950	0.964100
-9.375500	0.956000
-7.458850	0.886400
-9.059733	1.027000
-10.641583	1.113700
-7.018100	0.906800
-5.221300	0.831200
-6.038467	0.926100
-2.768800	0.801800
-1.552617	0.752700
-1.944917	0.787500
-1.903733	0.786400
-1.828167	0.775200
-2.062783	0.807700
8.452250	0.320000
2.288450	0.667700
-5.402150	1.144700
-6.025883	1.179100
-7.331850	1.368800
-2.697667	1.112700
1.342300	0.953600
-3.247283	1.249900
-4.093133	1.352200
5.837433	0.741900
2.345750	0.977000
-0.737733	1.175200
1.219517	1.069000
7.035967	0.762400
6.566050	0.787400
-2.727550	1.325300
0.102700	1.186100
1.932933	1.141800
-0.921983	1.327900
1.608533	1.182300
2.369700	1.226300
0.537183	1.397400
3.845400	1.226300
11.781733	0.812700
12.533800	0.773600
6.156017	1.159300
7.502267	1.086100
14.491733	0.785700
9.873367	1.064500
13.273683	0.865800
8.521983	1.107900
7.752750	1.277600
10.719283	1.131900
6.434600	1.461800
16.213250	0.884600
7.574217	1.366900
13.371833	1.056000
23.545900	0.539600
15.708283	1.042200
20.226200	0.831200
24.603817	0.581500
12.584467	1.299700
21.925683	0.719100
21.496367	0.744700
17.511067	1.021000
13.132517	1.294900
27.509067	0.468400
20.284200	0.901100
22.425083	0.774000
16.660333	1.109400
21.359733	0.955500
21.961767	0.937000
21.092817	1.001800
22.321183	0.948300
23.392317	0.985600
20.016867	1.196500
28.217917	0.762100
22.440983	1.110900
24.541967	0.985000
23.347300	1.073900
18.893400	1.413200
16.500583	1.622700
31.405867	0.764800
24.587817	1.202200
15.793983	1.725300
25.359783	1.163400
27.855383	1.072800
35.449367	0.701800
34.848117	0.743800
29.210400	1.075100
25.183850	1.342700
32.550833	1.013400
34.813100	0.899600
40.339900	0.610400
35.215950	0.901100
39.173833	0.642900
36.590033	0.788400
38.458017	0.784300
37.750467	0.862900
35.712850	0.993200
35.855617	1.001800
41.454933	0.631500
31.678017	1.212100
22.416617	1.840000
33.693550	1.157600
41.318167	0.701800
33.145517	1.193200
36.058933	1.099500
44.185117	0.656500
28.444433	1.651200
32.387583	1.398600
38.642100	1.013000
35.595550	1.226300
35.564050	1.293800
41.420317	0.993100
46.071517	0.743800
41.883517	1.019800
35.343683	1.415100
35.859033	1.371300
46.085133	0.788700
36.552650	1.450400
41.077483	1.179900
43.520217	1.063300
39.627833	1.293600
36.011967	1.666300
46.202900	1.080200
49.245267	0.919000
50.308633	0.876900
46.500883	1.138200
46.903583	1.094400
45.041067	1.327000
47.280450	1.219100
53.479567	0.915100
48.501167	1.212700
38.920517	1.787500
49.965167	1.161400
45.473833	1.437000
45.850800	1.436600
50.751600	1.177400
50.383067	1.189000
46.616383	1.423500
45.683817	1.515700
47.607817	1.442800
56.918617	0.995500
58.646333	0.894600
56.619283	1.026300
59.090817	0.865300
55.533783	1.082700
50.666350	1.372400
54.151283	1.349100
52.010550	1.479500
54.194850	1.357400
57.046150	1.199300
62.350683	0.984300
63.731783	0.919500
63.787200	0.907100
61.160000	1.078700
55.979467	1.461700
60.852850	1.173200
56.917567	1.493800
56.456783	1.535400
52.492133	1.800600
62.777700	1.166900
61.225550	1.357400
60.434983	1.457100
61.821967	1.393300
64.941267	1.228000
63.192433	1.336500
64.873300	1.215800
67.249417	1.149400
65.449617	1.338400
66.202133	1.281000
72.875983	0.891300
60.736433	1.646700
63.072567	1.564600
68.259467	1.236100
70.937000	1.140200
70.122050	1.185200
66.466167	1.373200
59.456950	1.819400
72.753933	1.064400
70.386283	1.199700
70.134400	1.251800
68.799800	1.344200
69.481083	1.316100
68.578917	1.379500
71.687400	1.338200
67.546550	1.593500
67.297400	1.621400
79.759133	0.881400
75.811983	1.204500
73.553967	1.375000
80.012700	1.033100
71.644600	1.555400
72.624917	1.497100
67.754933	1.802100
74.282867	1.450600
75.704500	1.390700
78.553950	1.230800
73.964483	1.503000
80.541800	1.148900
76.299283	1.404600
82.942033	1.026300
83.101550	1.116200
81.167650	1.262300
78.268400	1.489400
79.833950	1.406000
81.468683	1.303800
80.231450	1.380200
78.706017	1.581700
88.492683	1.030800
81.656500	1.433000
90.967850	0.884300
88.079400	1.203200
86.844283	1.253700
97.625600	0.584900
88.048617	1.173100
91.996300	1.063700
89.410700	1.213400
84.021000	1.595600
88.138033	1.346400
93.200100	1.044500
90.194900	1.271600
90.532900	1.234400
82.548450	1.724300
82.044050	1.828400
87.867000	1.594100
88.188133	1.587900
91.524217	1.390900
91.629567	1.413400
93.034217	1.414000
93.908900	1.385300
94.746067	1.372300
100.413767	1.034500
99.113633	1.092000
92.000267	1.534000
99.172467	1.233700
100.363833	1.163400
94.166467	1.529500
98.650533	1.296300
106.562350	0.898100
102.538983	1.131900
104.134667	1.023100
99.079400	1.322300
106.561967	1.073500
100.768717	1.415800
99.584100	1.483700
98.477567	1.563700
97.629967	1.627000
102.172200	1.370600
106.556800	1.112900
99.026867	1.554100
97.413267	1.724200
100.585450	1.627400
111.601317	1.037500
105.805983	1.337100
103.472583	1.515300
105.891900	1.413200
110.354267	1.150900
113.022733	1.069800
110.946917	1.188700
109.812850	1.256900
114.164983	0.991200
109.989783	1.335300
105.399150	1.609700
105.249983	1.690500
119.628033	0.834900
113.063783	1.184400
115.158433	1.061700
112.092483	1.284300
112.878250	1.247300
108.495183	1.559400
118.556483	0.999600
107.912333	1.655700
116.042417	1.155400
122.217983	0.900000
115.324833	1.339200
113.869583	1.444500
117.886650	1.208300
118.187283	1.223100
113.807433	1.544700
125.950067	0.826900
123.981550	0.959600
116.088733	1.452300
121.533867	1.129300
111.923317	1.717900
123.510400	1.173200
130.100200	0.779000
122.235000	1.312100
124.008417	1.193200
115.111350	1.703000
114.617783	1.750800
124.489667	1.310200
128.445817	1.082500
127.035433	1.184400
128.768567	1.069600
129.165250	1.151000
128.243867	1.229800
124.907483	1.415100
125.968450	1.398800
121.913900	1.604000
132.649667	1.006000
131.287533	1.134300
126.136217	1.522000
139.812383	0.702600
131.803717	1.209100
131.448150	1.232000
126.174667	1.539100
131.352133	1.284000
126.860900	1.637900
138.419950	0.937400
135.462533	1.131900
128.168050	1.595900
132.484817	1.343500
128.630933	1.560600
137.159917	1.098700
140.056933	0.945600
140.022783	0.968700
136.064617	1.188700
146.239967	0.691300
141.672833	0.970800
134.411683	1.408800
136.047833	1.313700
141.010033	1.138200
133.133233	1.629600
135.952850	1.511600
147.447183	0.815100
142.539667	1.111600
138.738000	1.355000
142.829550	1.189100
140.825000	1.367900
147.090750	1.013300
138.839250	1.544300
141.185317	1.411900
149.132167	0.919900
136.711367	1.703200
147.852383	1.088100
145.176233	1.246500
145.341683	1.274700
139.060067	1.645000
146.660100	1.240700
142.890100	1.452200
145.826783	1.422000
146.770883	1.386900
146.007967	1.459600
147.715400	1.366400
148.802000	1.289300
147.489483	1.376700
157.385283	0.785700
147.651600	1.363700
148.895667	1.393300
149.528000	1.428500
146.036833	1.719300
147.959000	1.592300
146.472983	1.659600
143.571700	1.853300
152.455517	1.385200
156.600950	1.236800
158.043517	1.160200
161.001400	1.007900
152.897967	1.507900
150.532717	1.682200
149.964150	1.720100
154.314400	1.469300
158.905183	1.212300
159.176233	1.375500
159.427250	1.357400
157.963500	1.439600
161.914000	1.197800
153.915767	1.789300
157.134900	1.622000
164.169100	1.247300
161.319267	1.429900
163.044167	1.322800
154.137867	1.859800
158.615983	1.714500
158.649767	1.734400
161.633033	1.630200
165.305233	1.379700
163.755333	1.472100
163.890400	1.485500
154.848933	2.086500
159.693350	1.777700
163.581550	1.557500
165.116667	1.483300
164.272950	1.536200
167.026533	1.433700
162.942800	1.697600
162.251650	1.765700
165.693067	1.548700
162.513767	1.748200
153.725233	2.299500
160.392583	2.066700
161.293483	2.016300
165.382867	1.789300
166.165150	1.729100
171.819567	1.524400
175.640417	1.338700
170.984583	1.630200
176.500017	1.322500
171.014967	1.656400
173.757417	1.492600
168.211217	1.888000
171.588850	1.714400
163.478067	2.215900
174.939933	1.565700
164.214850	2.204300
169.144800	1.926800
177.166750	1.521500
176.488217	1.646500
178.025550	1.563500
175.686983	1.704900
177.605433	1.616100
176.392917	1.791400
181.902317	1.479700
179.358617	1.681300
186.302450	1.263800
187.676133	1.176300
170.369683	2.166000
169.599367	2.235100
171.115667	2.167600
194.751483	0.950100
189.257917	1.259800
176.389433	2.040300
181.984167	1.698400
178.256517	2.028100
191.254650	1.268300
186.954200	1.565000
186.903983	1.574700
187.613550	1.522100
186.088817	1.604500
184.059700	1.845200
180.872300	2.061800
186.121083	1.775700
192.667733	1.392300
186.092467	1.795600
198.170933	1.192500
190.798000	1.644500
188.305917	1.833100
191.466267	1.633900
187.183850	1.897700
186.177517	1.975900
197.100083	1.468800
193.567917	1.684900
198.739483	1.397700
199.134683	1.407900
199.739900	1.359800
198.814783	1.389300
192.942950	1.784600
196.949600	1.572500
193.711800	1.754300
199.120067	1.447300
200.383983	1.463700
203.107033	1.337100
197.198133	1.740300
203.776067	1.362100
196.356733	1.771800
195.489333	1.846500
193.013150	2.081300
198.137150	1.862900
204.088950	1.572500
201.610667	1.708900
202.371700	1.673600
193.155767	2.243200
200.047250	1.868600
202.477800	1.861700
203.460400	1.802600
204.769583	1.717800
200.842317	1.962400
198.057367	2.176600
196.995217	2.249500
207.018650	1.730900
203.484967	1.958500
201.134567	2.089600
208.369550	1.674200
207.844600	1.867400
203.653883	2.118000
211.125567	1.701400
207.561683	1.893900
211.784650	1.768700
207.996050	2.028500
207.924983	2.065500
203.153383	2.362500
210.898217	1.871500
219.110533	1.386900
217.572483	1.570200
213.488417	1.840600
217.999200	1.652900
216.792400	1.689200
217.121183	1.683000
217.721083	1.642200
215.967050	1.786100
220.175983	1.630800
216.939000	1.830800
216.235050	1.861700
222.382617	1.503400
218.852183	1.841700
214.704783	2.109000
227.208750	1.386800
221.069567	1.750000
218.066483	1.959300
217.492767	2.003200
218.439500	1.967000
222.602233	1.719300
220.283733	1.993800
223.285450	1.853600
218.061100	2.170400
226.518883	1.658700
233.116283	1.380000
223.542500	1.974200
241.573250	0.974600
229.152633	1.711200
236.604467	1.229800
234.104367	1.398700
225.475367	1.999600
226.749017	1.956700
228.320700	1.897700
239.302200	1.247300
237.217417	1.375300
223.964900	2.147600
232.254767	1.687900
235.767083	1.587000
237.807767	1.458700
230.897283	1.878600
231.413083	1.880400
228.345850	2.182100
230.751583	2.044500
240.732683	1.499100
230.334150	2.126000
232.257567	2.029600
231.634067	2.083000
238.226767	1.801300
236.166217	1.941700
231.722600	2.240900
232.089283	2.227800
230.012100	2.363900
237.313200	1.923200
237.130067	2.062000
240.727283	1.848000
253.524217	1.107400
247.843133	1.428300
237.172533	2.108400
232.111183	2.440500
241.155900	1.913000
245.697367	1.656400
246.498967	1.628200
241.093700	1.931600
243.256533	1.807500
243.386183	1.869000
248.434750	1.595600
247.591850	1.631600
243.469917	1.896100
247.807533	1.740300
244.528783	1.951200
245.388250	1.989500
246.038933	1.911000
245.962183	1.926000
249.492800	1.694000
236.930767	2.558500
239.524017	2.438800
244.130600	2.210300
244.930100	2.209100
251.588483	1.809300
257.862733	1.440300
253.910900	1.724600
262.202600	1.243100
247.966600	2.131100
252.383550	1.837400
249.152433	2.034900
250.938800	1.954400
251.086567	2.020600
250.009367	2.196100
257.546383	1.750800
256.766367	1.830100
245.329567	2.588500
248.291200	2.492300
244.925917	2.733100
252.052933	2.366700
251.974767	2.380900
258.179433	2.006100
258.564833	2.014800
258.274183	2.166300
264.380067	1.821400
260.581633	2.103300
268.535650	1.634600
261.920100	2.027900
259.924767	2.160700
262.855433	2.036700
262.880833	2.034000
256.018800	2.436200
265.985100	1.851800
262.316500	2.201900
265.338950	2.060900
258.272133	2.532300
265.304183	2.139600
267.031133	2.065500
269.136983	1.913100
263.610033	2.326800
269.666333	2.055600
270.989717	2.002600
268.144767	2.176300
280.524767	1.447900
270.623850	2.019500
274.010900	1.876700
276.831883	1.803300
272.305033	2.071200
274.173083	1.946100
278.244033	1.750800
282.160167	1.592200
275.174750	2.006600
274.690883	2.043600
284.042867	1.483300
275.572683	1.988400
285.371217	1.411900
271.875167	2.344300
280.273167	1.839100
282.692267	1.672900
280.611950	1.800500
287.584683	1.435200
278.431300	2.018600
274.085183	2.320800
277.803550	2.110400
273.735133	2.369700
282.535117	1.860100
284.143017	1.859200
288.980617	1.624300
282.191183	2.061300
281.498283	2.125500
282.835050	2.042300
281.075350	2.170400
285.753133	1.953900
282.006433	2.238300
288.619133	1.851300
286.192233	2.027400
287.135917	1.969600
289.552917	1.946200
287.477617	2.091700
291.133933	1.935000
278.657783	2.701200
280.924983	2.563800
286.525667	2.239000
296.644883	1.720800
292.874433	1.934400
293.284817	1.990000
284.491933	2.496300
281.147483	2.869800
286.958033	2.534700
284.597200	2.723600
297.069883	1.986300
284.076717	2.883700
292.507700	2.333600
293.497367	2.292100
297.827833	2.027100
292.049483	2.415900
297.111900	2.202500
300.925683	1.984800
301.941183	1.910400
290.833417	2.601400
305.557133	1.834200
302.192900	2.048300
302.725850	2.063600
302.850967	2.051800
296.774267	2.402200
298.554633	2.288100
306.230117	1.952800
305.641550	1.998800
306.016783	2.027100
301.560250	2.278100
302.990467	2.206300
305.495850	2.070200
297.896533	2.663400
307.685067	2.071300
304.947017	2.243800
311.385500	1.866800
318.307617	1.523200
311.119800	1.998500
318.264817	1.677400
302.522167	2.569000
305.728483	2.380200
310.306567	2.104000
309.530867	2.176300
313.119883	2.057700
312.965983	2.084100
311.322067	2.245600
315.676083	1.987200
313.007867	2.144200
314.930683	2.066400
319.783450	1.891100
318.598367	1.958200
317.630500	2.026400
317.514167	2.019700
318.449517	1.969900
311.916150	2.370500
318.054600	2.200700
314.278083	2.420700
308.170933	2.818200
314.520417	2.450200
314.851283	2.544600
320.442533	2.220900
321.706583	2.124300
319.017017	2.299600
320.409367	2.301100
325.085517	2.089600
316.155800	2.633000
317.704783	2.574000
319.087750	2.495600
328.952267	1.885900
326.706983	2.035800
325.551833	2.199600
317.801200	2.688200
322.782667	2.434300
321.059000	2.552000
318.807500	2.714600
320.416950	2.638700
320.428600	2.782700
322.564683	2.696400
325.044150	2.546600
330.241717	2.248000
334.219950	2.143100
333.661750	2.169800
330.581083	2.393700
332.923967	2.265400
337.050783	2.059200
341.543517	1.798600
334.354733	2.229900
335.666583	2.146200
340.843867	1.889800
336.404017	2.122600
331.189483	2.443200
336.186233	2.167800
334.165250	2.337500
338.908517	2.143900
337.754650	2.234900
333.725717	2.499100
333.074867	2.562700
334.067950	2.516600
332.925250	2.628200
336.434350	2.529500
337.056767	2.507800
345.236050	2.039300
344.462783	2.083200
335.859933	2.598300
345.055883	2.065500
343.401183	2.280600
345.380800	2.161100
341.817517	2.379100
342.197450	2.375000
349.058217	2.069500
338.092767	2.730100
342.628483	2.521800
348.001183	2.198700
349.219617	2.126500
347.716817	2.200600
353.245567	2.002600
354.978533	1.910100
343.702967	2.579500
347.606050	2.360600
345.481833	2.524200
356.054783	2.006700
352.095100	2.250800
353.280550	2.199500
348.922350	2.474600
347.787933	2.521800
344.820483	2.694900
350.918200	2.452400
346.520200	2.761400
348.265533	2.737800
340.942900	3.167000
361.310967	1.961800
348.086967	2.742100
355.099200	2.396900
355.454850	2.392100
359.132450	2.182700
359.509850	2.149400
357.832067	2.262700
360.392717	2.102200
358.362600	2.348000
360.066150	2.277200
361.013733	2.280600
365.247433	2.029200
366.070233	1.978800
364.568117	2.077900
357.498883	2.544900
369.290650	1.942400
367.360733	2.075400
364.309967	2.254300
363.124617	2.326000
366.157067	2.204500
366.287717	2.194000
356.309850	2.820800
362.576700	2.468600
374.101333	1.782300
361.352200	2.534600
361.694183	2.671500
362.218833	2.658600
362.603217	2.712400
372.665033	2.127600
369.458100	2.336900
367.791117	2.452300
369.321483	2.422200
371.738983	2.290500
368.079600	2.506100
368.991450	2.466500
373.775717	2.279500
375.054900	2.253800
375.235017	2.266600
375.766950	2.261900
372.023000	2.531600
366.654400	2.870300
368.416383	2.847000
376.453983	2.449500
373.748550	2.631200
377.908250	2.431400
388.389167	1.802200
372.438150	2.753300
378.456117	2.403400
378.934200	2.413400
375.852933	2.593800
384.678133	2.082300
379.509617	2.406400
384.268767	2.219800
385.385617	2.169700
380.361067	2.523100
381.107117	2.488600
389.337217	2.010400
374.557750	2.886500
380.798583	2.568300
375.553000	2.890700
391.337567	2.133700
383.960117	2.560900
387.937867	2.340700
387.689617	2.358100
385.366983	2.684400
397.036350	1.932200
387.506617	2.500900
394.269683	2.115300
393.533350	2.218400
397.453033	2.069700
387.159883	2.694000
394.582183	2.308500
396.734200	2.170400
391.034750	2.486900
399.694500	1.991300
398.594783	2.199000
390.844917	2.676400
397.837983	2.290500
396.671817	2.405800
389.577850	2.831900
399.209500	2.273900
399.085883	2.392500
406.516050	1.969700
406.635867	1.964800
403.655517	2.133400
401.126750	2.400500
405.153217	2.199400
410.850167	1.929100
397.443933	2.725800
404.497233	2.310300
398.871600	2.669300
399.224900	2.710700
401.141583	2.695500
397.598917	2.916100
403.528183	2.599200
409.506250	2.258300
402.414567	2.688100
401.803100	2.743400
412.610133	2.235600
410.973367	2.325100
410.410583	2.346300
410.759650	2.355200
413.294450	2.331500
415.037750	2.235800
409.848017	2.581900
418.139650	2.078600
411.849900	2.461400
407.903600	2.695700
409.655033	2.750400
414.356050	2.457800
408.306600	2.817800
422.416017	2.013100
411.343583	2.766300
417.674750	2.425100
414.279617	2.632000
412.824833	2.757900
419.183600	2.375000
418.343350	2.440700
418.155483	2.505300
415.485200	2.764400
411.828083	3.030600
423.472933	2.323200
423.115217	2.347900
417.252683	2.694900
420.213367	2.530600
419.564383	2.675400
430.386733	2.038500
418.923317	2.740600
417.482917	2.851300
426.053067	2.458600
428.103283	2.360700
433.285433	2.097900
443.124833	1.486800
425.434650	2.525000
432.135667	2.127700
425.786300	2.633600
429.851900	2.391500
418.995533	3.090000
423.362367	2.833000
435.165333	2.107500
426.667017	2.621500
435.581300	2.197100
429.729483	2.592600
427.529867	2.794600
426.331333	2.868900
433.706150	2.414300
429.491683	2.666100
427.746550	2.794100
433.627217	2.499100
436.426283	2.323200
433.945250	2.477000
438.016850	2.294600
432.928250	2.709200
437.103367	2.483200
435.173100	2.610200
431.198517	2.854900
434.216750	2.839700
438.055133	2.604300
435.599317	2.795200
434.790383	2.869500
444.213167	2.402500
440.391167	2.608000
442.792850	2.446400
442.896500	2.453600
439.133883	2.754900
443.305867	2.489200
443.694850	2.444900
431.954733	3.179400
438.838617	2.866000
437.771167	2.985100
451.504700	2.195600
441.615983	2.811600
446.173933	2.553300
437.402983	3.090300
450.384900	2.386700
451.492800	2.386100
448.868183	2.569800
447.375483	2.690700
449.746367	2.563000
446.929250	2.746100
450.093933	2.595900
445.499167	2.986900
449.360850	2.767700
459.454667	2.183500
446.051750	2.993900
446.216500	3.138800
447.409700	3.083900
452.024867	2.909200
452.286317	2.894200
452.614167	2.883100
452.619083	2.874600
460.112200	2.543900
450.300767	3.160000
450.901650	3.135500
454.056267	2.948500
456.031400	2.842400
455.445217	2.875000
458.844367	2.799100
456.450600	3.008300
464.967200	2.527100
459.681800	2.828000
456.560583	3.053100
457.488717	3.028600
459.217633	2.958000
458.541083	3.097500
464.435700	2.761100
457.543717	3.176800
469.221217	2.536000
461.667833	3.084300
462.094350	3.062900
468.460217	2.723800
471.593417	2.545600
469.451633	2.635500
462.168650	3.065900
468.617883	2.740800
459.261567	3.326200
473.227450	2.527100
468.484433	2.783400
466.905800	2.931800
463.721900	3.155900
468.540033	3.009600
471.814100	2.822900
480.084900	2.334800
479.290883	2.379600
463.907350	3.382400
476.006150	2.704100
478.588267	2.642500
477.155583	2.717700
479.553617	2.566900
476.406533	2.760900
476.760333	2.786700
482.511100	2.556500
491.358350	2.040200
483.255383	2.479500
485.284383	2.386500
486.151500	2.453600
476.864183	3.011400
486.106667	2.498200
477.020817	3.065200
479.780483	2.899500
485.153483	2.574900
471.457783	3.512400
470.798867	3.605500
477.723317	3.249100
478.235100	3.256400
484.522067	2.883700
484.621200	2.885000
485.886950	2.919200
482.242683	3.191700
484.044267	3.187900
485.613283	3.062100
487.074150	2.996300
488.197983	2.914500
486.342117	3.052300
482.915150	3.362300
486.389650	3.171800
496.181200	2.586500
490.754900	2.944100
488.123600	3.226400
502.103250	2.399600
502.114917	2.438500
504.534833	2.262900
496.984483	2.706600
497.910700	2.651300
496.066000	2.871800
501.626683	2.578800
507.298817	2.287900
495.944883	2.987400
502.864617	2.570500
501.778267	2.611600
505.223067	2.569000
504.969233	2.574900
500.425683	2.889000
506.066800	2.533400
502.842367	2.748100
497.580300	3.103400
500.203933	2.978100
501.720233	2.927700
500.767333	3.017700
500.404917	3.037300
506.622417	2.704600
509.375750	2.630000
508.206817	2.727100
506.837083	2.833200
512.105683	2.518800
507.647367	2.773000
503.719400	3.007700
505.300283	3.069900
495.007350	3.690500
506.713833	3.069900
512.408900	2.714300
513.741967	2.634100
516.005633	2.514600
514.689150	2.607500
515.203583	2.555400
504.191217	3.283900
507.948067	3.099100
507.198983	3.164700
512.127367	2.884300
508.124300	3.167000
508.514600	3.152300
509.346950	3.110000
513.887033	2.856600
521.730367	2.452000
510.019083	3.259500
523.793667	2.439400
518.513867	2.763100
511.868383	3.208200
512.801617	3.272500
512.969367	3.299800
520.929100	2.880500
521.238833	2.871000
511.531867	3.494800
517.158050	3.174500
516.304967	3.361300
519.598450	3.163700
516.991533	3.380700
526.901100	2.787200
519.192483	3.264900
521.087100	3.167000
524.928383	2.984700
529.356500	2.744600
515.224800	3.644300
527.857017	2.888200
538.935883	2.213700
530.790350	2.678900
528.303967	2.919700
532.224933	2.772300
530.447900	2.882900
529.926367	2.903200
530.125667	2.934700
522.860667	3.396400
526.245283	3.259800
535.046417	2.822500
528.114817	3.259300
530.878217	3.098800
529.391867	3.216400
532.754183	3.144000
524.695683	3.647100
528.193167	3.508600
525.509867	3.695800
541.020150	2.778800
538.912767	2.879800
535.774533	3.203700
537.221200	3.146600
537.430650	3.135500
539.565400	3.025400
541.494067	3.027100
539.151417	3.228700
543.758917	2.989300
536.697367	3.444700
542.136700	3.125000
543.634867	3.036100
539.848550	3.317300
545.908100	3.036800
547.820500	2.945900
542.816600	3.283100
540.472550	3.431600
544.700250	3.166400
551.484717	2.774500
554.607483	2.745300
551.064250	2.934800
555.505050	2.676800
559.440800	2.427800
554.990350	2.722700
549.799583	3.026700
549.686400	3.063800
541.393283	3.615000
549.054567	3.196300
548.986950	3.213800
547.610150	3.435500
549.876333	3.315900
558.862533	2.747400
553.023683	3.130500
552.435767	3.361000
547.740317	3.608800
541.368317	4.071400
542.362983	4.052400
547.062267	3.805000
563.592733	2.857500
561.115900	3.005000
556.435367	3.269200
557.277750	3.245600
557.378583	3.366300
558.310617	3.310600
564.589800	2.942900
558.890067	3.289900
555.362683	3.532200
557.206883	3.446700
558.446050	3.419900
562.209383	3.212700
563.257233	3.153900
563.950500	3.128300
563.558083	3.285900
563.337917	3.334300
575.747300	2.666900
571.443400	2.933300
564.103400	3.382700
562.466500	3.482300
561.255883	3.702000
571.655150	3.108200
573.573233	3.009600
569.361717	3.243700
568.125767	3.349300
570.700717	3.231100
578.606667	2.759500
564.327883	3.666300
571.014683	3.264000
577.097650	2.894900
569.207567	3.388900
567.916750	3.598400
569.346233	3.551400
574.972250	3.266600
568.681483	3.631800
567.928850	3.677000
582.717383	2.821500
575.251900	3.429200
573.685717	3.515800
578.743983	3.235200
583.543183	2.946000
582.781167	3.102400
584.548017	3.007900
589.273400	2.760500
587.066433	2.919900
579.577933	3.364500
580.821133	3.299400
582.927633	3.163500
577.181083	3.520500
582.918250	3.348800
588.244600	3.059600
586.061633	3.192000
589.000900	3.022400
592.272133	2.849400
586.683300	3.299000
590.408450	3.075800
592.035333	2.987400
583.286200	3.540200
588.413317	3.326200
588.893483	3.324300
584.970317	3.586600
589.112233	3.355800
586.333133	3.521700
588.860217	3.365500
588.591233	3.514200
596.447367	3.056800
595.390500	3.158600
599.955317	2.893600
587.871200	3.621500
581.288617	4.044100
592.274583	3.518400
591.483467	3.608200
592.930467	3.515800
590.236050	3.720500
597.823367	3.269200
590.679500	3.716600
600.024817	3.250900
597.381750	3.401000
596.495117	3.475900
597.232583	3.445500
604.158333	3.108600
606.646300	3.054200
605.605800	3.104000
601.276383	3.399600
593.596300	3.874700
601.016517	3.435400
607.733800	3.042800
605.491900	3.270800
608.261067	3.112600
602.331483	3.463500
598.846183	3.688800
615.566483	2.868900
608.114433	3.331500
615.622017	2.944300
613.841150	3.052400
606.583333	3.487500
605.575233	3.551400
608.669500	3.489200
604.451250	3.768200
610.285317	3.502600
610.977583	3.447600
606.601417	3.713200
612.160983	3.398400
620.761217	2.936200
615.749233	3.257700
621.095467	2.946700
612.268950	3.484100
615.093983	3.340500
613.993667	3.535900
616.051050	3.454400
621.991817	3.162100
620.233017	3.261400
617.656150	3.416300
620.414800	3.277100
626.910650	3.016400
623.335783	3.236700
626.748317	3.088300
618.982883	3.558300
615.896783	3.747900
620.438167	3.484900
618.135867	3.707200
618.499100	3.686600
613.126333	4.013700
620.481250	3.612800
624.463833	3.475800
625.270033	3.473100
620.664000	3.793700
622.197650	3.721100
631.563450	3.170000
626.043367	3.513100
623.240983	3.723600
633.646133	3.141900
633.169567	3.191200
636.451783	2.974200
636.253583	3.051600
634.470917	3.246400
632.939817	3.349300
637.509717	3.089200
638.351533	3.058800
634.512400	3.290000
630.321367	3.565600
640.843467	2.957200
629.909450	3.611300
646.746350	2.787800
646.774683	2.769000
635.623850	3.423200
636.581450	3.393200
634.303967	3.683200
641.838933	3.281700
639.201500	3.481700
641.096983	3.345300
644.218450	3.152300
641.502833	3.334200
619.479217	4.855900
637.733750	3.757700
641.149000	3.556400
641.250083	3.564900
640.762533	3.691500
640.391217	3.781900
642.494333	3.662100
642.852900	3.644300
642.738200	3.716900
645.084633	3.670500
653.356883	3.206700
657.113383	3.007500
649.172033	3.507000
646.493333	3.739500
637.220650	4.288100
643.390217	3.946900
638.288767	4.248400
643.495700	4.108700
650.039450	3.715100
649.530400	3.764900
651.213217	3.660700
656.430000	3.489500
660.508250	3.294200
654.876983	3.681000
659.422967	3.403600
659.927667	3.403000
652.222050	3.852800
656.576933	3.693900
658.857950	3.624800
658.780367	3.666100
653.260283	4.024200
658.053917	3.750700
660.345600	3.612800
664.082367	3.442300
671.406700	3.076100
663.658550	3.551600
666.262033	3.438000
660.886133	3.780000
663.655567	3.597700
662.176733	3.676200
673.512850	3.074900
659.922417	3.890800
663.606933	3.690300
663.360683	3.681900
672.754500	3.263000
674.766550	3.164300
674.337967	3.229900
668.336700	3.578000
675.555467	3.139000
667.032050	3.659300
662.167750	4.066100
666.451517	3.862600
667.370917	3.869800
669.020900	3.786500
670.098683	3.706800
667.610017	3.873700
670.562917	3.734200
671.770633	3.720300
676.737967	3.452800
673.813950	3.680300
668.276283	4.022700
674.758850	3.667400
675.062483	3.655200
675.233400	3.823100
687.103550	3.125900
679.892917	3.577900
680.430217	3.550300
680.598417	3.650200
682.867617	3.576100
677.384850	3.956300
682.364417	3.657100
690.335600	3.185000
688.921567	3.267700
685.569267	3.518800
688.656000	3.340400
680.598483	3.864600
681.426250	3.818000
687.301733	3.482400
692.120217	3.200800
695.941483	3.051600
690.764733	3.372600
686.653583	3.624600
689.820583	3.455400
686.723317	3.645100
685.012950	3.910400
686.225000	3.887000
682.742267	4.161100
685.371517	4.023700
686.056883	4.006200
686.417300	4.011800
692.601150	3.796400
693.839783	3.720300
690.205433	3.944400
690.598600	3.925700
702.567267	3.326800
699.180500	3.564800
698.544783	3.645000
698.155033	3.660000
694.183600	3.913700
702.140050	3.418700
684.220883	4.560000
691.482683	4.170900
700.049200	3.712400
699.905100	3.700100
703.326900	3.712400
696.369333	4.060500
701.499333	3.781500
696.557767	4.083700
705.394417	3.601600
697.495617	4.096600
702.691817	3.797200
696.343117	4.187800
700.415617	4.009900
717.991200	3.093500
709.260400	3.615800
706.209450	3.796400
697.138667	4.376800
708.024700	3.877700
705.246167	4.030600
700.867883	4.295700
710.687100	3.743900
711.713733	3.833100
708.059817	4.051600
706.989100	4.145600
701.208150	4.490300
713.368650	3.788900
713.762117	3.799900
716.343983	3.635700
717.333217	3.587200
720.187717	3.538300
707.777900	4.306400
717.822133	3.699300
713.452733	3.963000
707.575283	4.393200
715.684650	3.965900
710.091350	4.373300
721.759550	3.669800
721.179950	3.710000
727.485867	3.328300
721.702233	3.729900
722.676767	3.762400
722.722367	3.767500
727.683367	3.550300
720.714767	3.949300
716.440350	4.233200
722.112167	3.895300
716.363283	4.416600
719.478483	4.239600
719.429000	4.232300
722.266150	4.072100
735.652550	3.399800
728.301617	3.850900
720.582200	4.369100
723.315217	4.201300
727.233233	3.970500
730.556517	3.767500
726.263317	4.132000
732.479750	3.794000
730.693783	3.932700
725.367650	4.235600
723.784800	4.407200
731.217983	4.052400
733.270450	3.947000
723.226933	4.599900
728.736950	4.277600
738.012167	3.722200
729.181200	4.272500
733.507333	4.082100
733.127200	4.120100
732.675050	4.172300
732.620233	4.197600
733.285533	4.158300
728.444783	4.479000
730.888333	4.487400
733.398683	4.335600
739.830133	3.945000
739.038800	4.013000
746.357017	3.747400
748.536200	3.636800
744.612883	3.913500
735.573450	4.454000
739.315633	4.266000
747.247867	3.841600
748.890217	3.730300
748.591583	3.771900
751.324633	3.632700
746.950900	3.914600
747.268800	3.909800
746.351400	3.972500
752.343117	3.625300
736.782200	4.677500
745.743467	4.198000
748.243883	4.108200
745.469317	4.279600
733.800700	5.023700
741.682900	4.528400
748.756383	4.238700
751.085550	4.128200
753.534667	4.001500
743.949133	4.573500
744.770117	4.607200
755.018567	4.014400
757.629467	3.912400
761.011050	3.755000
751.726383	4.289400
762.159817	3.665800
753.519283	4.253700
754.579800	4.227500
761.777567	3.880300
755.807333	4.277700
767.119050	3.619400
759.990267	4.045000
757.910950	4.210700
759.408100	4.150400
751.833833	4.625100
753.730983	4.502700
753.573700	4.556900
762.293667	4.089400
766.734133	3.832200
754.076433	4.640400
760.483883	4.296600
765.689383	4.006200
762.255983	4.242600
763.769983	4.292700
765.089717	4.207600
772.972183	3.809700
771.430683	3.941700
765.167683	4.298700
763.155800	4.421600
760.059650	4.692200
773.057117	3.939100
772.841083	3.943200
775.470067	3.772600
776.727583	3.807600
772.465017	4.122700
762.394283	4.777200
771.833633	4.199100
773.863517	4.086100
773.949100	4.080200
768.793767	4.446700
771.145000	4.436300
764.662117	4.847800
772.414417	4.416700
768.832117	4.710700
772.074983	4.622700
765.947367	5.016400
776.866200	4.422500
781.983150	4.119500
775.598300	4.584200
782.712967	4.166800
775.021833	4.613400
787.745483	3.851400
781.776983	4.369800
783.781817	4.248100
789.735383	3.915300
788.763600	3.965000
785.669900	4.241000
784.548667	4.343200
784.336617	4.368100
791.213900	3.959600
784.882367	4.355800
785.866483	4.297800
784.218167	4.473700
783.877767	4.524400
792.454950	4.090100
783.965883	4.538700
795.314817	3.883600
798.186283	3.720300
795.452750	3.947600
790.278600	4.347800
793.302633	4.179900
795.068233	4.090800
797.375867	3.960400
796.089467	4.163500
792.941250	4.382900
800.212617	3.997600
799.335917	4.029400
800.071283	3.964200
800.193633	3.981300
783.395183	5.039400
799.069600	4.125500
794.751217	4.438900
801.651233	4.051800
794.905567	4.449400
798.784117	4.232800
806.698317	3.911800
802.408050	4.178900
813.421067	3.544600
810.236050	3.697100
811.215883	3.709200
804.842850	4.188800
797.161550	4.698500
806.885400	4.147400
798.911967	4.639300
805.524750	4.256000
804.345483	4.359300
811.060267	4.093900
818.018783	3.674400
821.602233	3.480600
808.439683	4.253100
815.694650	3.956000
806.082150	4.578500
809.349450	4.431800
804.404250	4.766000
809.491317	4.463200
815.522617	4.114300
813.624733	4.249200
822.504150	3.730700
813.420917	4.294600
814.556783	4.271700
812.080317	4.457200
813.189533	4.365300
817.061000	4.225700
820.385283	4.098000
807.523167	4.946800
815.661517	4.446700
827.680067	3.737500
824.973783	3.908100
822.928550	4.064600
816.698667	4.534900
823.007200	4.168400
822.341750	4.207100
825.354850	4.042100
821.997933	4.311000
816.886783	4.625100
820.822650	4.436300
829.295350	3.941000
816.849867	4.707100
822.165417	4.377700
831.799800	3.956300
834.403967	3.821500
837.041967	3.713800
834.793900	3.853700
826.928900	4.330700
830.896367	4.106500
833.884283	4.084800
838.380550	3.834500
831.483800	4.249100
826.994933	4.551000
834.907067	4.181500
834.383467	4.244800
817.715200	5.306900
831.692533	4.496400
825.656233	4.879500
838.985717	4.096000
834.566483	4.401000
833.472833	4.562100
837.875500	4.343900
839.126383	4.291800
845.028450	3.939500
840.608367	4.207300
837.557683	4.410000
836.768583	4.523700
834.739367	4.679800
825.496283	5.281200
834.111067	4.773700
832.010167	4.975600
835.492483	4.788600
840.536233	4.564800
837.315133	4.759200
852.588167	3.882400
847.052467	4.195600
851.597967	4.043800
849.838367	4.180600
843.448467	4.590100
841.858800	4.746500
847.770367	4.407400
845.953467	4.528900
844.796433	4.663200
843.639567	4.869100
858.535183	3.998700
847.279433	4.707000
845.406033	4.802700
839.510983	5.166900
841.185500	5.117300
854.255150	4.466900
848.124550	4.837100
848.986767	4.814500
847.585300	4.922600
856.222517	4.550500
861.590583	4.221900
859.787883	4.320900
857.297733	4.476000
864.226617	4.192900
853.155033	4.848300
853.983033	4.844700
863.371850	4.319600
853.065200	4.983800
863.029117	4.385800
862.715583	4.414500
862.029567	4.474300
873.116933	3.943200
872.757967	3.968800
864.611983	4.463100
857.748950	4.892600
866.773800	4.356200
863.926400	4.580600
863.557883	4.606500
868.614200	4.354100
867.215750	4.440800
863.740300	4.687100
862.419200	4.787300
867.710700	4.636700
865.704683	4.790700
865.727967	4.858000
874.710033	4.319400
861.889783	5.106300
871.046467	4.581700
870.739783	4.706400
876.639200	4.405400
875.524483	4.534200
872.219550	4.739900
876.347083	4.480500
869.191050	4.902800
874.699467	4.675600
870.606133	4.984500
882.245217	4.279600
882.054433	4.288200
881.016900	4.428800
883.954817	4.336600
881.040767	4.499200
881.030117	4.542700
875.061567	4.937800
879.692817	4.661800
880.614950	4.586300
872.992167	5.179900
874.996617	5.084200
887.996950	4.382600
881.118117	4.797400
880.383450	4.840100
881.999183	4.766700
877.209017	5.118100
883.637483	4.749600
879.599317	4.987000
887.274933	4.538100
883.674283	4.815300
884.044183	4.813200
902.576283	3.740400
886.755883	4.704900
887.933983	4.635600
884.121050	4.881800
884.149417	4.993000
887.526517	4.874200
896.823267	4.363600
898.011267	4.322800
888.998383	4.876800
895.224617	4.498600
892.985733	4.661400
890.853333	4.887300
896.231250	4.590800
890.314917	4.949200
888.087783	5.102400
898.165367	4.631200
898.265267	4.639900
899.393717	4.653100
895.820000	4.876100
901.233817	4.559500
895.835450	4.893800
895.432933	4.975800
905.553650	4.394300
911.060283	4.065600
898.992933	4.770300
903.439233	4.513200
889.782883	5.357400
899.481300	4.884200
890.294717	5.509000
906.660600	4.578200
905.509750	4.666400
906.148400	4.670900
901.933617	5.058700
911.779450	4.496000
904.701117	4.948000
905.917367	4.881400
910.527833	4.587300
903.102700	5.064200
901.900600	5.218400
915.227733	4.431000
902.685883	5.194200
904.586600	5.084900
906.757117	5.071600
911.491667	4.801900
906.772033	5.194500
909.817333	5.037900
908.952117	5.093200
903.965233	5.396400
919.923050	4.579400
912.565267	5.063800
916.254550	4.852400
911.877667	5.150200
919.411200	4.732100
917.743217	4.834900
915.693617	5.047900
920.548150	4.838600
911.949600	5.418800
926.109483	4.572600
919.284917	4.976500
926.527600	4.543100
921.410633	4.960800
920.857933	5.034900
927.592017	4.639300
923.009367	4.920100
926.982433	4.757400
927.685600	4.776500
929.862133	4.671900
927.367117	4.886500
928.233400	4.839500
929.638683	4.747800
926.861250	4.909100
942.545733	4.091400
939.620633	4.278900
932.801333	4.714200
937.746550	4.412000
922.437300	5.351900
930.661683	4.855200
931.021650	4.964300
931.108917	5.003800
940.917350	4.504400
934.105383	4.879800
922.735117	5.563900
941.105017	4.495300
926.164950	5.479100
936.986200	4.912400
939.683583	4.762200
939.278700	4.794800
937.490400	4.951100
946.011700	4.555100
934.612417	5.251900
943.389083	4.765800
934.900617	5.276800
937.363633	5.135100
951.617883	4.295100
938.325633	5.209800
940.123283	5.127600
938.301550	5.331800
943.173067	5.053600
948.132600	4.760900
942.843617	5.071300
944.916250	5.095400
938.527133	5.499900
949.114683	4.878900
945.385517	5.128600
942.917583	5.388900
944.771983	5.340600
962.756650	4.323500
949.334400	5.126600
946.246083	5.354100
949.574617	5.139700
949.737683	5.162700
957.111083	4.770000
962.075800	4.503200
958.355800	4.742600
956.184533	4.879800
953.416067	5.038300
948.817500	5.359400
958.010650	4.930100
959.496733	4.848600
962.338417	4.702300
957.228050	5.023700
959.038767	5.056300
957.242867	5.179300
964.995167	4.790800
966.795083	4.668900
969.864400	4.495700
960.629150	5.044700
965.731250	4.870700
975.869150	4.309700
954.947950	5.632100
963.477483	5.091900
951.537250	5.837000
964.922683	5.039100
952.822333	5.904900
956.107883	5.739600
960.195583	5.497200
960.645867	5.510200
967.620367	5.160100
964.889883	5.400000
964.183350	5.461700
966.731583	5.382600
965.546883	5.456400
966.608433	5.405400
976.003233	4.872000
971.914300	5.231600
974.052467	5.106700
971.988767	5.291200
966.324183	5.640000
977.594417	4.980100
968.972533	5.508900
973.681283	5.376900
978.205017	5.097100
986.232333	4.628100
978.542450	5.072000
976.120133	5.320200
979.811650	5.155400
964.640283	6.125100
979.184983	5.277600
979.537617	5.255200
979.806483	5.244600
979.874817	5.443300
977.615350	5.568500
988.553817	4.918000
988.645700	4.892600
984.240133	5.199000
989.085867	4.988200
989.482450	4.982600
979.998833	5.576400
978.644850	5.665100
978.606733	5.732400
981.091017	5.601400
987.196983	5.248200
987.270650	5.237000
987.321033	5.310900
989.007300	5.210600
988.934383	5.240100
992.255000	5.061500
989.260750	5.327900
993.481183	5.092200
991.398483	5.254500
988.130083	5.463000
996.767550	4.953800
1000.517700	4.742300
989.391100	5.480000
991.841000	5.413100
1001.554133	4.889700
994.825317	5.320000
992.235100	5.481500
991.187617	5.557300
999.013267	5.098900
994.857200	5.333900
1007.080683	4.661400
1007.195883	4.785900
999.476567	5.259700
994.654533	5.597400
1002.925417	5.107600
996.405333	5.560800
995.605867	5.632900
999.166983	5.417100
997.520783	5.510700
998.310000	5.621600
1005.213450	5.252600
998.659700	5.672300
1000.645850	5.586200
1002.646083	5.497500
1005.553450	5.318000
1001.106417	5.726500
1008.521867	5.302300
1002.115650	5.713400
1009.553683	5.266800
1005.456683	5.594700
1011.506500	5.285300
1011.297683	5.334900
1009.305583	5.476500
1014.121833	5.201400
1008.361867	5.541400
1005.658133	5.715300
1012.217733	5.330700
1014.286350	5.270600
1017.819883	5.214600
1027.404883	4.643400
1014.399900	5.416700
1012.637167	5.539300
1024.148900	4.890200
1014.440517	5.480800
1015.217350	5.456900
1026.415467	4.789900
1021.426917	5.129200
1022.463817	5.077000
1012.596017	5.716000
1021.345250	5.207900
1018.607950	5.383400
1020.759350	5.285900
1022.578283	5.366400
1026.387117	5.129800
1033.435900	4.731500
1025.560250	5.202800
1024.486917	5.401300
1020.789100	5.654300
1027.167817	5.336800
1025.555417	5.468200
1021.432350	5.754500
1028.653850	5.306900
1029.323733	5.260200
1030.380583	5.210700
1029.703617	5.286700
1026.439817	5.544700
1020.844617	5.902600
1030.131900	5.372900
1036.593850	5.026100
1032.563367	5.389000
1034.678917	5.310400
1036.044483	5.294700
1030.639450	5.616800
1034.436900	5.391500
1034.068117	5.450800
1037.110783	5.426100
1036.969533	5.454600
1032.098300	5.774000
1038.350483	5.417100
1045.742217	5.128600
1037.205300	5.632100
1032.436700	5.932100
1039.764900	5.501300
1036.279233	5.882100
1043.112733	5.470800
1042.619683	5.543400
1042.681867	5.563900
1054.640883	4.904100
1049.653650	5.203400
1044.775817	5.474800
1044.486483	5.491200
1042.132567	5.687200
1049.614600	5.369300
1051.524283	5.254500
1051.827133	5.223000
1050.823050	5.332700
1054.819783	5.190900
1045.616300	5.754500
1049.423533	5.590200
1047.021850	5.754500
1044.321683	5.911500
1052.836450	5.417900
1045.362233	5.990100
1050.088650	5.754500
1052.423750	5.682500
1052.394683	5.691600
1054.974433	5.549400
1054.264900	5.607200
1055.239867	5.708200
1050.835267	5.972200
1064.466283	5.173200
1057.084717	5.605600
1058.695217	5.609800
1059.538967	5.604100
1061.626933	5.514600
1060.885933	5.591400
1070.718683	5.001300
1064.167333	5.388900
1070.218617	5.100100
1069.008150	5.241200
1059.791533	5.790900
1064.981833	5.498700
1057.676983	5.975100
1071.516517	5.259400
1063.619617	5.779000
1073.033500	5.262500
1065.525800	5.717900
1067.574483	5.629500
1064.567033	5.833200
1063.286417	6.041800
1066.830367	5.869600
1073.625517	5.513200
1065.695050	5.979800
1072.105233	5.592600
1070.542500	5.704700
1065.650817	6.026500
1076.678350	5.370500
1073.136433	5.560800
1067.361600	5.901200
1070.870183	5.891700
1065.440050	6.296300
1074.634217	5.770600
1076.212183	5.668500
1068.771017	6.114700
1077.322217	5.602000
1081.513717	5.368900
1072.638717	5.951800
1084.287683	5.273700
1085.899733	5.183700
1076.731817	5.756500
1078.440400	5.639600
1078.374950	5.713400
1074.578017	6.073300
1083.706367	5.561800
1082.131333	5.689800
1085.535750	5.474000
1077.937050	5.930600
1081.221633	5.743800
1080.948717	5.832700
1080.403433	5.894400
1084.689400	5.677100
1078.040567	6.075100
1074.033667	6.398500
1083.567633	5.869200
1076.708700	6.341900
1090.270500	5.532500
1089.935783	5.567100
1094.046700	5.342600
1080.279650	6.236300
1092.933950	5.566400
1095.672000	5.428400
1085.292750	6.090800
1085.097383	6.135600
1090.512000	5.806700
1086.926733	6.060600
1092.414800	5.881100
1094.998917	5.726500
1092.823983	5.873400
1097.328133	5.631300
1092.772167	6.039100
1092.817200	6.088400
1097.079383	5.853300
1090.696283	6.269100
1105.265383	5.396700
1098.619483	5.797500
1098.190517	5.962600
1102.194283	5.743800
1112.725417	5.172100
1106.157533	5.571300
1104.204500	5.703500
1109.108617	5.413900
1105.108617	5.768500
1105.709750	5.705000
1107.489650	5.623700
1104.080083	5.813700
1099.149867	6.264100
1109.140533	5.730000
1099.600600	6.383900
1108.767500	5.839100
1113.084017	5.612800
1099.887633	6.421500
1106.578633	6.087600
1110.311683	5.975700
1111.426500	5.918300
1119.794200	5.412500
1114.807767	5.737900
1114.375383	5.864700
1113.920767	5.904100
1122.171150	5.468600
1115.459950	5.857700
1112.469933	6.057000
1116.281233	5.844000
1128.008400	5.303000
1114.064317	6.142900
1112.992250	6.246500
1122.559483	5.696400
1128.508783	5.339700
1123.996883	5.603400
1119.618767	5.990500
1125.926517	5.662000
1125.821317	5.708200
1128.557217	5.538400
1121.050883	5.985300
1125.116950	5.763200
1126.545367	5.725600
1118.711517	6.292300
1121.051933	6.156000
1127.497100	5.798600
1125.404100	5.934200
1121.911633	6.283800
1125.004150	6.143900
1131.300567	5.833300
1127.671650	6.058700
1129.114783	5.975700
1129.573100	5.972600
1116.776833	6.796500
1129.209750	6.102800
1136.463067	5.726500
1127.371567	6.278500
1136.843000	5.744600
1130.218650	6.146900
1135.596333	5.937000
1128.356950	6.404300
1127.664533	6.496500
1140.327550	5.708300
1138.836867	5.885800
1133.025800	6.271400
1140.879767	5.920600
1135.075967	6.260200
1140.512733	5.954100
1140.487617	5.959000
1146.157600	5.644400
1146.204950	5.678300
1140.187133	6.049500
1134.622617	6.391300
1141.677650	6.005300
1142.221133	5.990100
1142.095050	6.025100
1138.613367	6.365800
1142.387133	6.162300
1150.891983	5.700300
1153.293683	5.551500
1148.461033	5.851800
1141.404200	6.272000
1146.136517	6.143500
1147.804450	6.074900
1141.468250	6.474500
1138.737283	6.663600
1146.469983	6.330900
1149.782167	6.146800
1156.235483	5.820900
1156.989683	5.813100
1155.692000	5.904200
1152.734667	6.096100
1150.450217	6.429400
1147.440733	6.630900
1143.368400	6.943400
1150.517033	6.491100
1151.747333	6.448800
1155.222683	6.309600
1154.967567	6.348100
1158.453133	6.165900
1155.119800	6.395000
1153.399067	6.532900
1157.935733	6.310500
1155.562233	6.552900
1155.971350	6.557900
1162.046200	6.272000
1163.396700	6.193700
1162.081650	6.238400
1162.420583	6.239700
1158.671850	6.596000
1159.226867	6.598900
1164.333717	6.345400
1161.329550	6.504500
1167.125100	6.163400
1160.940667	6.529000
1167.568633	6.308700
1170.647167	6.112600
1175.478300	5.836700
1169.912817	6.147700
1169.309233	6.267600
1169.130933	6.343500
1180.586750	5.678000
1176.648850	5.897000
1177.366617	5.903200
1175.007667	6.090700
1183.129650	5.648300
1180.006317	5.921800
1188.463433	5.406900
1175.574233	6.188100
1181.255033	5.852400
1172.416900	6.403100
1172.121167	6.444700
1177.950000	6.240500
1180.548550	6.101900
1178.758400	6.215600
1177.869400	6.255200
1177.591567	6.313300
1175.216867	6.497200
1183.739317	6.062200
1181.468933	6.196800
1169.230700	6.930800
1181.028983	6.266100
1184.519050	6.137300
1184.224200	6.229400
1196.843233	5.569200
1186.615883	6.180900
1190.946150	5.938700
1185.712500	6.227600
1183.542550	6.434300
1195.538950	5.835200
1190.267033	6.165600
1195.502333	5.871000
1185.054483	6.501300
1195.444833	6.027000
1197.365517	5.926600
1199.861133	5.818800
1187.196667	6.582700
1198.833750	5.880800
1195.814550	6.080900
1194.826950	6.282500
1197.005267	6.149200
1189.441933	6.602400
1194.406200	6.321500
1189.362583	6.775500
1198.558650	6.249200
1197.656783	6.367800
1194.703417	6.557200
1206.950533	5.869200
1202.585017	6.162100
1204.660333	6.058500
1209.524650	5.785100
1203.639783	6.186300
1207.025433	6.089400
1210.296017	5.896000
1206.222133	6.131400
1199.227767	6.595000
1196.155650	6.873200
1206.027833	6.346200
1211.964433	6.024300
1206.239183	6.351900
1203.056567	6.563800
1204.785783	6.481800
1214.617417	5.970700
1208.301217	6.351100
1201.418133	6.764400
1207.765817	6.400000
1210.183333	6.421200
1213.326383	6.252600
1217.153750	6.038900
1215.063383	6.171600
1220.037833	6.015000
1206.820250	6.797900
1214.328650	6.413300
1215.301550	6.374000
1199.979317	7.352500
1213.070617	6.571300
1213.041633	6.583200
1222.968517	5.992300
1216.732567	6.392200
1213.601217	6.691000
1217.807050	6.462800
1224.870667	6.098200
1220.919050	6.326000
1225.984617	6.032800
1213.508933	6.812700
1221.818950	6.437900
1219.442933	6.583500
1217.816267	6.704200
1232.248333	5.854200
1223.704183	6.446400
1229.438917	6.128200
1229.516617	6.157900
1229.028750	6.197300
1232.279150	6.025100
1235.340267	5.857300
1231.266783	6.228300
1234.024917	6.065500
1235.291550	5.978300
1235.494433	5.979900
1235.561433	6.092100
1236.089450	6.098300
1230.610883	6.481800
1224.043283	6.912600
1231.950233	6.462900
1230.095367	6.589300
1231.818917	6.502000
1241.895200	5.900900
1239.568883	6.066000
1238.206283	6.215100
1231.025100	6.658700
1236.184617	6.365800
1245.040283	5.854800
1238.879667	6.336700
1237.127567	6.481000
1246.971600	5.920100
1243.253100	6.140000
1239.341150	6.499700
1238.009433	6.645900
1237.326550	6.779000
1245.633567	6.265600
1245.907483	6.253500
1243.583900	6.421700
1241.045217	6.699100
1244.950917	6.496900
1249.878900	6.223100
1251.871533	6.105900
1247.929033	6.481800
1249.060383	6.436500
1253.542683	6.220500
1252.062833	6.354300
1251.373867	6.418900
1250.266050	6.487400
1253.475317	6.309100
1258.837183	6.000600
1248.652650	6.658400
1258.021617	6.230800
1253.570783	6.492300
1255.135717	6.413200
1252.261383	6.599100
1254.541283	6.605700
1255.438817	6.579700
1257.256217	6.547900
1265.962383	6.005400
1262.905000	6.199700
1269.109433	5.792700
1262.201533	6.323100
1261.990533	6.377700
1264.630350	6.282500
1274.826100	5.668100
1263.979900	6.331700
1260.026200	6.576800
1260.929650	6.620300
1266.699217	6.267400
1261.000000	6.628700
1253.004717	7.102000
1255.321450	7.022000
1256.587383	7.013100
1254.459217	7.208200
1257.534617	7.061800
1252.394250	7.388300
1263.783800	6.755900
1271.175267	6.366400
1268.669767	6.640300
1270.481783	6.531600
1268.485350	6.730700
1266.071483	6.885300
1273.514883	6.476100
1276.430000	6.280700
1275.219133	6.481800
1274.532767	6.550000
1281.030433	6.176100
1276.184217	6.479200
1274.814167	6.571600
1268.533967	6.964900
1275.781683	6.696900
1278.719100	6.527300
1266.019967	7.300000
1269.843233	7.080900
1276.087100	6.749300
1284.588200	6.283100
1274.695000	6.892700
1276.463950	6.824900
1274.840783	6.947100
1277.975450	6.774800
1279.474683	6.755400
1282.079333	6.693000
1289.959217	6.250300
1287.712783	6.432000
1281.481167	6.819100
1279.802350	6.933500
1285.731433	6.611700
1280.924417	7.058800
1289.668817	6.559000
1290.729033	6.512100
1285.738017	6.834700
1285.985750	6.935000
1288.142633	6.835800
1290.386917	6.784300
1295.172067	6.496000
1298.559633	6.289500
1299.813100	6.207200
1298.817217	6.382900
1300.737000	6.291800
1290.994000	6.932900
1294.353283	6.741600
1296.301417	6.636700
1291.074900	6.950900
1288.010150	7.221800
1297.322100	6.756200
1294.022617	7.006300
1299.135467	6.690400
1300.802733	6.596400
1304.821367	6.451600
1304.245433	6.503700
1306.353850	6.419600
1300.847517	6.764200
1291.818500	7.297400
1295.611217	7.110400
1300.603500	6.880400
1310.500483	6.283200
1301.924717	6.814300
1303.360083	6.754500
1305.819817	6.627400
1306.004500	6.633500
1310.839833	6.523800
1309.929417	6.565000
1307.885333	6.705600
1307.929783	6.716100
1310.367433	6.688800
1314.591850	6.469400
1312.322283	6.646200
1297.753017	7.515100
1308.204267	6.906700
1302.098450	7.292600
1308.509217	7.052500
1312.310800	6.859400
1310.896217	6.978700
1315.977717	6.743500
1314.741033	6.828000
1316.973167	6.708700
1311.267200	7.050200
1315.577467	6.837700
1319.044383	6.644100
1313.255633	7.009800
1312.955700	7.040600
1318.582900	6.977900
1317.950017	7.068400
1317.060533	7.165200
1324.286150	6.734900
1320.555817	6.964300
1314.149617	7.364500
1317.298983	7.305300
1323.866333	6.968400
1323.604783	7.079700
1317.125917	7.458400
1324.563050	7.043900
1324.426233	7.059300
1323.436800	7.296500
1329.220600	6.961100
1331.686033	6.814500
1337.714083	6.424500
1331.901917	6.804100
1331.433983	6.917100
1331.044183	6.962400
1331.788517	6.934300
1322.490733	7.497600
1331.122417	7.032100
1336.976867	6.697600
1334.181067	6.922900
1341.819750	6.490400
1340.093983	6.619200
1334.721650	6.948200
1341.050000	6.586100
1342.784700	6.485300
1337.010517	6.985300
1337.170350	6.996500
1348.399900	6.333200
1345.526133	6.525900
1334.283317	7.318900
1333.368000	7.427900
1334.213833	7.415400
1343.565900	6.901400
1345.484083	6.775500
1342.091600	6.979700
1345.915950	6.866900
1356.346333	6.274500
1343.384433	7.069200
1344.552117	7.010500
1342.957300	7.118000
1344.366267	7.039600
1348.967150	6.778700
1348.215250	6.868700
1342.176150	7.260200
1337.259050	7.613900
1348.058417	6.991900
1346.347083	7.099500
1349.517267	6.923200
1352.103517	6.906700
1355.892567	6.700600
1350.794033	7.007400
1354.657283	6.798900
1338.527433	7.923000
1356.571217	6.895600
1355.715000	7.022000
1355.668133	7.024800
1354.336033	7.100700
1359.747667	6.778300
1368.559800	6.314000
1362.978550	6.671900
1341.260517	8.000200
1351.778567	7.395100
1355.097900	7.214600
1356.638567	7.156300
1355.420050	7.296200
1358.971433	7.160700
1353.408567	7.525600
1357.499700	7.294400
1351.574367	7.694500
1357.818000	7.448600
1365.804600	6.997100
1366.019017	7.042600
1363.638633	7.181400
1365.837317	7.076200
1363.822217	7.214200
1368.771133	7.044600
1370.030283	7.009500
1366.286167	7.280800
1365.794883	7.346100
1370.776633	7.051500
1365.194867	7.406200
1368.969817	7.350700
1371.388000	7.228700
1370.600667	7.331500
1371.579133	7.267200
1376.538150	7.088300
1374.043000	7.284800
1373.833967	7.352500
1375.048383	7.287600
1372.428483	7.467900
1374.226700	7.372100
1369.498633	7.690500
1375.066767	7.515100
1381.991867	7.129000
1388.044767	6.814300
1374.033600	7.657400
1379.260750	7.370300
1382.174183	7.220100
1382.653200	7.333400
1390.352267	6.886900
1384.210200	7.256900
1384.343100	7.258100
1383.615133	7.424100
1394.420700	6.800900
1382.609167	7.522600
1390.442433	7.080600
1378.136950	7.824500
1382.115933	7.620600
1385.873100	7.481000
1381.926833	7.711500
1392.554383	7.071900
1387.847667	7.396900
1386.571033	7.552800
1392.416100	7.296500
1395.730183	7.112100
1397.706350	7.043000
1391.331933	7.415400
1393.896017	7.257400
1394.680867	7.256800
1388.938433	7.730100
1394.180350	7.432700
1387.846117	7.880500
1396.203400	7.380200
1396.877700	7.366100
1400.900133	7.100700
1396.264817	7.530100
1400.707567	7.324300
1397.255800	7.541300
1396.926800	7.566800
1396.638550	7.581200
1397.727100	7.530800
1408.329250	7.043000
1404.707250	7.302800
1404.880500	7.323800
1404.510500	7.359200
1403.914000	7.541300
1405.962033	7.454100
1420.587517	6.600700
1407.512050	7.367600
1412.319650	7.268600
1408.762983	7.459200
1409.501833	7.455000
1409.719267	7.474000
1408.487467	7.575400
1412.564533	7.369500
1409.279033	7.558500
1415.594817	7.193800
1414.589817	7.289500
1410.101550	7.695200
1416.318600	7.333700
1407.180483	7.903200
1412.810683	7.599000
1418.873350	7.250000
1427.979433	6.713400
1420.660317	7.198600
1420.216817	7.232500
1420.317400	7.258100
1419.846567	7.300000
1425.505700	7.109000
1416.104450	7.715000
1415.941800	7.785200
1424.309633	7.273800
1418.043267	7.646200
1416.905067	7.755700
1424.518517	7.381300
1425.805433	7.385100
1426.303467	7.384900
1424.910950	7.519700
1433.025217	7.027300
1421.841667	7.705900
1426.510967	7.446100
1437.499433	6.927600
1431.726400	7.265300
1442.974350	6.598100
1433.853333	7.133100
1433.791417	7.269700
1440.088900	6.901400
1434.671600	7.223600
1424.817767	7.825900
1429.982117	7.568800
1432.829283	7.404900
1429.879200	7.687400
1432.058200	7.622300
1439.094450	7.276400
1443.185733	7.032000
1436.465267	7.433800
1436.911033	7.424700
1437.407167	7.593700
1432.354367	7.883800
1430.722350	7.997600
1429.607267	8.087500
1432.893683	7.951500
1433.322550	8.076800
1440.374483	7.689000
1435.433967	8.031100
1438.246850	7.884200
1444.592950	7.526300
1446.410417	7.435600
1448.180967	7.469500
1449.872150	7.397300
1450.359267	7.393600
1447.732467	7.544800
1453.135900	7.216100
1444.391867	7.737100
1443.725000	7.898600
1441.941000	8.030600
1444.838717	7.936000
1448.544800	7.723400
1450.027883	7.635000
1458.840250	7.098500
1443.754700	8.160200
1451.575950	7.710800
1458.721700	7.296500
1454.206767	7.561000
1459.297617	7.310500
1463.844567	7.169200
1451.916733	7.912800
1455.341167	7.713100
1449.317683	8.078700
1458.320833	7.567500
1461.029817	7.441000
1465.497467	7.271800
1462.826017	7.442500
1462.707967	7.475200
1459.041283	7.693800
1467.324433	7.344300
1463.772833	7.598100
1469.167867	7.342000
1458.239833	8.006400
1463.554967	7.694200
1465.259183	7.603500
1466.077950	7.682600
1467.661533	7.624500
1469.026967	7.564900
1465.814100	7.778900
1469.458683	7.597200
1463.457967	7.948600
1470.879483	7.521300
1469.348567	7.667800
1477.837633	7.193400
1472.849767	7.549900
1472.080667	7.589800
1479.262300	7.166300
1468.388783	7.862100
1467.537883	8.059800
1464.583967	8.271700
1473.413400	7.767500
1474.363917	7.726300
1486.484717	7.160500
1481.851433	7.433100
1478.898317	7.627000
1478.080533	7.699500
1481.332367	7.667200
1485.584650	7.416200
1484.233450	7.530200
1474.749267	8.119000
1494.416617	7.027300
1490.338317	7.245400
1476.557617	8.099200
1493.025133	7.131600
1490.591317	7.302100
1484.809467	7.664800
1492.800650	7.247600
1489.388717	7.427200
1484.640183	7.748700
1491.543850	7.372100
1491.507400	7.425200
1484.927833	7.957200
1495.114750	7.372700
1492.505233	7.536900
1497.840900	7.225100
1498.097817	7.329400
1492.240700	7.730900
1485.439467	8.198500
1487.443417	8.106400
1477.095217	8.757100
1491.295067	7.932400
1493.400300	7.820000
1490.764267	7.995400
1496.123133	7.779600
1494.457717	7.903900
1493.753700	8.014700
1499.966200	7.652000
1495.640767	7.990600
1499.812300	7.763600
1496.803500	7.947800
1502.704717	7.604800
1496.158400	8.120000
1500.172917	7.951000
1505.591200	7.684400
1504.372567	7.779700
1507.299617	7.614700
1503.413400	7.844900
1503.324133	7.872600
1501.092467	8.149000
1508.422783	7.754400
1513.825783	7.430400
1508.045567	7.755100
1510.195500	7.694900
1510.135033	7.738200
1508.370350	7.871300
1505.744550	8.045600
1513.149500	7.631900
1503.192033	8.235900
1505.139950	8.259200
1509.393850	8.038100
1514.851533	7.773600
1512.363117	7.953400
1515.113850	7.811600
1518.819417	7.574200
1513.824317	8.004400
1520.113267	7.658200
1526.611867	7.249300
1520.323850	7.616000
1508.925117	8.417200
1508.233900	8.534000
1519.765950	7.885700
1505.476133	8.795700
1523.205833	7.719600
1521.439050	7.876400
1530.860300	7.387400
1518.747667	8.189800
1522.865217	7.990900
1518.885200	8.278400
1527.384500	7.779800
1525.069367	7.895500
1525.869217	7.889200
1525.570233	8.066700
1527.959717	7.936600
1528.452033	7.914900
1515.738833	8.705700
1521.241700	8.435600
1534.331617	7.681900
1532.125233	7.863900
1534.770433	7.705200
1536.121650	7.652000
1529.911650	8.033600
1530.505817	8.137600
1537.668133	7.773900
1544.168367	7.444300
1540.694217	7.677700
1535.167750	7.988000
1535.403717	7.984300
1541.751483	7.821000
1539.398917	7.939900
1527.982450	8.648000
1532.165983	8.403900
1532.242467	8.461600
1545.074967	7.745200
1541.378067	7.966900
1543.061017	7.895200
1534.156400	8.459900
1531.784283	8.639700
1537.865217	8.295700
1537.530050	8.425700
1534.986700	8.608700
1543.815767	8.093200
1541.381617	8.239900
1553.935400	7.642100
1545.869017	8.142700
1542.961433	8.412000
1547.083417	8.167000
1539.165817	8.690500
1541.343967	8.581300
1543.518367	8.615500
1555.971567	7.901500
1549.613533	8.345100
1548.292783	8.456700
1548.633017	8.467000
1557.994117	7.885600
1553.768700	8.276300
1551.945233	8.437800
1550.325067	8.600800
1554.781383	8.316900
1563.487867	7.804900
1561.604550	7.920200
1555.725067	8.298100
1558.068867	8.290000
1548.836700	8.874200
1558.217200	8.375300
1561.531817	8.173900
1555.359867	8.523700
1560.325483	8.268000
1563.906733	8.206800
1570.357233	7.816500
1563.901867	8.200900
1562.068200	8.321300
1559.720433	8.593200
1555.455033	8.897700
1570.395550	8.058800
1564.386250	8.431400
1568.398000	8.200400
1565.923467	8.353300
1566.023350	8.447300
1568.164783	8.395200
1571.671717	8.254600
1569.525217	8.398300
1561.452967	8.872900
1561.817567	8.859100
1569.209850	8.527400
1569.866150	8.506400
1566.543050	8.725100
1569.853633	8.528700
1574.106383	8.351700
1577.319467	8.321500
1579.783483	8.190900
1580.576750	8.210300
1577.755150	8.383100
1572.866950	8.660900
1576.540967	8.411200
1577.768383	8.348400
1570.443217	8.830900
1580.613650	8.436800
1579.887467	8.459200
1579.722650	8.483000
1581.208300	8.410100
1582.616850	8.485400
1578.453333	8.741700
1590.252583	8.034300
1586.606617	8.247400
1585.556500	8.412800
1578.359983	8.891700
1584.551200	8.627000
1592.276167	8.192200
1597.189150	7.902500
1592.428167	8.164900
1590.460683	8.389200
1591.868800	8.375300
1569.378150	9.733700
1579.074083	9.215100
1589.472650	8.685500
1595.118117	8.427400
1602.581283	8.004300
1599.400683	8.225400
1589.248683	8.833800
1594.653633	8.529000
1596.833033	8.401500
1604.984950	8.042900
1600.571300	8.303000
1603.332983	8.196900
1598.329533	8.481900
1598.799817	8.452000
1600.986550	8.339300
1610.810350	7.791200
1610.480783	7.836300
1599.847983	8.501100
1602.346800	8.364800
1599.293300	8.584400
1606.229200	8.192300
1609.992567	8.114800
1605.346000	8.423000
1604.394200	8.472500
1604.613150	8.495300
1605.136133	8.510700
1601.970983	8.846100
1608.468800	8.477000
1610.076883	8.401500
1617.834300	7.967600
1620.033983	7.949700
1611.969683	8.454600
1611.656217	8.497900
1613.494550	8.389400
1610.157050	8.654900
1609.493100	8.714600
1624.402100	7.845500
1612.220717	8.570800
1616.446733	8.479500
1613.536333	8.725200
1617.318800	8.535200
1620.347833	8.358000
1621.018867	8.321500
1612.981867	8.827000
1620.203433	8.427000
1621.150783	8.369400
1621.104567	8.526700
1625.003283	8.373300
1620.692183	8.657400
1624.733183	8.405400
1624.527650	8.453900
1618.964850	8.800700
1619.480717	8.783200
1619.809083	8.785200
1617.834667	9.077200
1623.615367	8.903800
1623.653833	8.937300
1629.696817	8.590300
1623.574700	9.030200
1634.734600	8.488700
1629.268450	8.831600
1629.793350	8.788700
1634.764783	8.499600
1633.157767	8.610700
1628.216867	8.929000
1638.242400	8.518700
1634.631767	8.741200
1635.382150	8.699300
1632.309333	8.871900
1637.686650	8.560100
1641.974750	8.298500
1624.345433	9.357600
1631.599033	8.935200
1636.866100	8.877800
1640.591383	8.726700
1650.753600	8.202200
1648.433817	8.346700
1638.224067	8.954800
1641.542667	8.776600
1643.442983	8.818500
1650.309017	8.434300
1651.205017	8.381200
1634.367733	9.434400
1643.933783	8.986500
1647.580967	8.830900
1651.208433	8.629800
1648.912800	8.775800
1643.939717	9.099100
1648.265333	8.837100
1649.119583	8.815200
1650.083400	8.840600
1648.385217	8.962300
1647.852233	9.010500
1652.191717	8.785600
1657.035317	8.655100
1647.939133	9.207600
1656.642850	8.715200
1654.322467	8.866000
1653.911833	8.886900
1654.182133	8.883000
1660.797233	8.684700
1659.989983	8.737200
1659.002883	8.817900
1660.939683	8.706900
1658.698183	8.833800
1660.473150	8.739500
1661.585267	8.783800
1662.995967	8.759500
1665.011667	8.653900
1667.076650	8.531900
1668.013850	8.485400
1669.319617	8.416900
1659.500700	9.014300
1669.144767	8.450800
1662.151617	8.926000
1677.447967	8.006800
1676.138567	8.056000
1673.962833	8.152200
1667.249100	8.688200
1659.002133	9.550500
1671.045533	8.872800
1670.402633	8.913900
1670.091733	8.949600
1678.014850	8.485400
1670.812733	8.916300
1678.657783	8.638200
1673.215933	9.009900
1681.976750	8.494700
1677.256050	8.802500
1672.145050	9.095300
1680.341000	8.613200
1678.517817	8.752300
1681.207833	8.577000
1679.799667	8.927200
1675.120500	9.298400
1687.165650	8.573300
1686.678417	8.613100
1682.406183	8.877000
1685.741117	8.666500
1687.065317	8.598700
1688.614383	8.518200
1692.724633	8.358900
1679.467167	9.210400
1693.678300	8.413700
1692.142783	8.512200
1693.938633	8.439600
1683.662217	9.052900
1688.378933	8.914800
1690.135717	8.927800
1693.324183	8.744700
1692.160383	8.830800
1691.880000	8.857100
1692.420950	8.832200
1686.812750	9.247400
1689.486117	9.271300
1689.523783	9.308100
1697.959633	8.830500
1698.397850	8.815100
1699.497333	8.887500
1705.314350	8.567600
1705.293517	8.579800
1701.280867	8.824600
1705.659917	8.554600
1701.542350	8.796800
1692.636383	9.498300
1700.101233	9.101400
1708.405417	8.599300
1699.640500	9.125900
1703.423567	8.905000
1698.572333	9.207000
1706.700867	8.710900
1706.823467	8.720500
1703.183300	8.984900
1700.378100	9.152900
1708.885767	9.006400
1702.094683	9.432300
1704.072517	9.336700
1699.022267	9.665800
1706.821683	9.290700
1702.177433	9.685800
1712.614067	9.082600
1709.654083	9.257100
1712.782650	9.091400
1716.645183	8.890500
1713.112050	9.089000
1711.300467	9.192400
1718.408583	8.799300
1720.790633	8.950500
1727.963967	8.546200
1718.951983	9.085200
1712.769950	9.451400
1725.195100	8.716700
1717.427467	9.198700
1709.813900	9.723200
1719.359583	9.181800
1727.010867	8.751100
1732.879867	8.410600
1730.391533	8.544300
1735.207317	8.254000
1723.800800	9.152600
1729.963583	8.780400
1729.723833	8.779800
1728.129500	8.902100
1731.601700	8.792000
1730.061500	8.963600
1728.659033	9.041400
1736.596700	8.552900
1732.045250	8.839400
1729.601333	9.009300
1729.938050	9.052700
1727.091033	9.400800
1739.634683	8.670300
1734.852500	8.996300
1736.388800	8.933000
1741.741817	8.763400
1738.691733	8.971200
1743.445633	8.683500
1737.873017	9.015100
1730.337650	9.613100
1742.302333	8.947800
1743.007300	8.887700
1735.995200	9.307700
1743.252117	8.875300
1743.840650	8.834000
1740.544133	9.045300
1739.490533	9.116100
1743.943117	9.124600
1744.958450	9.140000
1747.827800	8.971400
1748.351233	8.967900
1756.003883	8.516100
1753.097500	8.695700
1750.606417	8.985700
1747.226033	9.263400
1759.038467	8.611300
1752.184133	9.022200
1753.469517	8.917900
1750.890817	9.082300
1756.416067	8.814400
1759.485583	8.806200
1755.041617	9.078100
1752.058583	9.282600
1756.722167	9.033700
1757.606317	8.995900
1756.053967	9.107200
1757.869900	8.986700
1754.656233	9.189000
1764.006700	8.629100
1762.974800	8.724200
1757.966250	9.017300
1752.903450	9.314900
1759.899383	8.924700
1758.917333	9.002400
1756.318350	9.560600
1759.450617	9.394300
1761.733617	9.296800
1756.041333	9.631800
1765.068450	9.267800
1765.222133	9.303600
1776.816417	8.630500
1770.076350	9.029000
1771.368217	8.947000
1770.676600	8.997800
1761.758383	9.525300
1769.265917	9.077800
1760.581633	9.614100
1761.735467	9.558700
1769.284633	9.193500
1765.835617	9.527800
1766.976867	9.523900
1764.730883	9.683400
1767.411350	9.562400
1771.566633	9.335100
1770.548983	9.452100
1780.982267	9.045400
1778.091383	9.228900
1778.384483	9.253800
1780.777750	9.126200
1780.206500	9.311900
1771.844333	9.833400
1785.626283	9.034800
1784.059100	9.150200
1786.139500	9.050000
1782.638100	9.245600
1792.554150	8.842100
1790.107733	9.024300
1780.310683	9.615000
1787.327100	9.200000
1787.924367	9.186100
1788.463617	9.149800
1787.098917	9.240700
1790.327133	9.047700
1790.905450	9.015500
1784.609350	9.384200
1791.449583	9.118500
1783.792850	9.638600
1788.581317	9.340300
1782.552033	9.732300
1790.897483	9.264900
1790.995633	9.286800
1788.789317	9.553900
1788.453200	9.702200
1793.338667	9.464200
1799.778933	9.108000
1794.916200	9.457700
1801.731783	9.171000
1808.117700	8.825600
1796.435450	9.554600
1795.614400	9.606200
1804.814667	9.057100
1803.343533	9.163800
1801.906333	9.432600
1801.362717	9.498400
1808.941833	9.056100
1802.550000	9.444200
1811.174367	8.920000
1806.876183	9.162000
1798.609600	9.666800
1795.340150	9.890300
1796.662967	9.863800
1804.224967	9.394300
1817.988917	8.936500
1813.233417	9.261100
1811.419083	9.420900
1811.861067	9.403300
1809.352083	9.628800
1820.586650	8.969600
1809.393250	9.645800
1806.544883	9.826200
1804.086683	10.076100
1810.988100	9.765800
1822.409050	9.116300
1812.841200	9.687800
1819.111767	9.348400
1820.714183	9.358500
1819.699350	9.431900
1816.882417	9.633700
1816.396583	9.667800
1809.501367	10.110400
1815.677050	9.777200
1820.160083	9.646500
1818.724833	9.749400
1821.861783	9.597300
1821.795417	9.584200
1829.652483	9.121800
1824.979417	9.411700
1820.639900	9.854300
1824.708050	9.613400
1826.048983	9.546600
1820.956333	9.856800
1821.951517	9.877900
1834.028250	9.173900
1833.637267	9.268000
1836.334550	9.093200
1822.495667	9.940000
1832.060233	9.377700
1828.601450	9.665900
1831.000783	9.586200
1828.975167	9.759100
1829.769950	9.744200
1834.334117	9.486400
1829.917317	9.774400
1830.145883	9.802800
1835.719883	9.610800
1841.534100	9.280400
1842.530367	9.235000
1840.307533	9.384300
1842.623050	9.287900
1839.895050	9.454700
1837.311717	9.684400
1846.227500	9.156800
1843.051483	9.391500
1839.393200	9.593300
1843.806283	9.485400
1841.863333	9.645900
1844.065917	9.586000
1840.717550	9.821900
1841.999133	9.773700
1834.578350	10.240700
1837.587000	10.149800
1843.342867	9.792700
1838.008733	10.135800
1840.616883	9.991800
1845.266600	9.823700
1848.112583	9.794700
1852.064400	9.592100
1857.667333	9.314100
1857.365333	9.350100
1856.104417	9.422800
1855.796467	9.485200
1855.119283	9.678900
1860.155917	9.389800
1853.531000	9.861500
1853.333950	9.893000
1861.083450	9.439400
1859.602733	9.537000
1855.703800	9.913100
1851.753150	10.179500
1865.903433	9.366600
1858.748300	9.803900
1860.172617	9.878800
1861.297333	9.802500
1857.293450	10.096700
1863.600700	9.713900
1862.708533	9.925200
1868.662317	9.584200
1859.173417	10.205800
1868.834650	9.651500
1875.700900	9.287900
1873.925933	9.381600
1874.710017	9.341500
1870.655200	9.570800
1863.025600	10.049900
1866.243617	9.940000
1874.567283	9.469200
1874.289267	9.479200
1869.133450	9.809000
1866.629367	10.033600
1867.249067	10.033900
1866.691217	10.122700
1870.661433	9.887100
1881.268550	9.273200
1870.731800	9.914300
1872.753717	9.961900
1871.585283	10.071600
1874.534233	9.960600
1878.573900	9.729800
1879.382717	9.695200
1881.434550	9.550100
1871.486733	10.360500
1873.704017	10.243900
1883.749283	9.687600
1884.318983	9.650400
1883.663150	9.793400
1877.653567	10.205800
1884.088167	9.880600
1887.436567	9.654400
1887.166500	9.680600
1889.582417	9.548200
1891.593233	9.443100
1887.758500	9.730400
1880.454383	10.170300
1883.415117	10.052800
1887.926317	9.800800
1882.963433	10.103700
1890.697550	9.653300
1890.631267	9.851200
1882.270167	10.360000
1887.526350	10.069400
1887.125633	10.128600
1894.784900	9.810200
1888.147217	10.230700
1891.181850	10.090400
1890.492367	10.201600
1890.868683	10.247700
1895.733683	9.933000
1900.945067	9.726100
1895.893883	10.080900
1896.978367	10.035100
1890.627533	10.493100
1901.082567	9.877300
1900.465450	9.918200
1892.909583	10.391400
1900.241800	10.016900
1899.362500	10.091000
1900.957417	10.002400
1903.822000	9.846200
1905.685167	9.894100
1907.683550	9.804500
1895.608733	10.568700
1897.101117	10.512400
1903.804467	10.136500
1907.799450	9.912800
1900.487650	10.504700
1905.737800	10.236500
1901.991983	10.543500
1915.255750	9.737600
1912.635717	9.906100
1911.113333	9.996000
1923.300633	9.447000
1918.909433	9.701700
1913.226633	10.035300
1906.469467	10.467400
1909.428650	10.377800
1908.398833	10.539000
1918.538083	9.953100
1914.787317	10.208200
1911.673100	10.411100
1911.628017	10.426000
1913.792533	10.364100
1914.965750	10.423700
1920.315683	10.137600
1917.056083	10.390800
1921.309750	10.160300
1919.696767	10.251700
1922.233283	10.115100
1920.737050	10.367900
1924.114567	10.156600
1927.800283	9.942900
1920.120933	10.428300
1923.920650	10.352600
1929.810317	10.032400
1939.265217	9.489400
1918.061617	10.738000
1930.611967	10.011700
1924.918033	10.346400
1927.163283	10.286400
1927.001767	10.354600
1931.900150	10.094900
1928.698467	10.303000
1934.144267	10.017700
1927.545033	10.438500
1932.015100	10.207100
1934.116317	10.088500
1938.370567	9.847000
1934.608717	10.082800
1927.481933	10.508100
1928.211250	10.479500
1927.608533	10.591500
1937.453717	10.132900
1932.682033	10.434600
1928.577333	10.694100
1935.209783	10.305900
1931.200533	10.562400
1940.993117	9.981400
1926.090100	10.874000
1936.986217	10.265500
1949.496283	10.007100
1945.802700	10.266500
1948.452517	10.134700
1942.491783	10.497900
1943.764867	10.435000
1950.110867	10.045600
1948.714900	10.299500
1950.484333	10.257000
1947.704383	10.470600
1946.905517	10.506700
1944.845883	10.640700
1942.723567	10.792000
1947.889900	10.635800
1952.635117	10.368700
1945.648750	10.819400
1957.189617	10.150000
1959.574150	10.058900
1963.623633	9.897000
1960.315917	10.123300
1958.744233	10.261500
1955.894750	10.465400
1966.378283	9.801900
1960.996717	10.123900
1967.917967	9.726400
1961.984333	10.079100
1964.657183	9.915000
1954.932683	10.493400
1963.904317	10.276300
1958.498267	10.649800
1961.586617	10.468000
1964.473933	10.298700
1963.882017	10.361800
1955.490150	10.867400
1964.566767	10.508500
1965.056233	10.488300
1975.174567	9.954700
1974.928417	9.980200
1971.422100	10.190900
1972.946650	10.118600
1970.483050	10.292300
1963.689750	10.760600
1964.060850	10.737800
1967.084433	10.574100
1967.578583	10.659300
1969.762300	10.649000
1981.782833	9.970500
1981.334167	10.023100
1974.258100	10.494200
1977.886367	10.302400
1980.032167	10.149100
1975.913283	10.411200
1975.334933	10.473300
1972.535833	10.705800
1976.689133	10.462800
1980.890533	10.221000
1980.797033	10.247700
1980.479700	10.273400
1973.949917	10.645600
1978.650033	10.554600
1980.003700	10.526600
1982.155683	10.409400
1983.118617	10.365400
1973.680333	10.940100
1985.726800	10.222100
1983.128617	10.393900
1982.469000	10.440500
1987.855433	10.188600
1988.499500	10.262900
1988.474883	10.304700
1982.679367	10.661800
1993.938917	10.015300
1989.328983	10.317300
1983.299783	10.704000
1985.114500	10.796300
1992.461950	10.420100
1989.877233	10.622100
1985.146483	10.908600
1991.874517	10.518400
1990.507250	10.628000
1992.527300	10.742300
1999.428767	10.366900
1998.629417	10.437100
1991.836967	10.850500
1997.164133	10.572900
1997.405083	10.562400
1997.028350	10.597400
1996.944333	10.584000
1998.361617	10.832500
1999.521600	10.781600
1997.803517	10.927600
2006.829483	10.452300
2006.430933	10.554900
2004.759550	10.667300
2005.101450	10.698800
2012.074900	10.245200
2004.758050	10.688300
2002.236317	10.838800
2001.926033	10.919100
2003.242317	10.914100
2007.012067	10.710100
2014.660150	10.262300
2008.761067	10.619500
2015.094017	10.249300
2006.472567	10.763500
2009.107683	10.666200
2012.109033	10.532400
2021.865850	10.236200
2026.743983	10.002000
2016.471367	10.603300
2013.150033	10.796400
2017.442200	10.527500
2012.935500	10.823300
2017.955450	10.739000
2021.695200	10.532300
2018.888100	10.719800
2022.237133	10.550100
2018.713967	10.773100
2018.737967	10.772200
2028.038133	10.380300
2027.050133	10.527600
2021.769900	10.820900
2030.637617	10.294000
2019.347617	10.955800
2017.357167	11.115100
2021.688533	10.877100
2027.459150	10.537700
2025.401633	10.736700
2031.822617	10.433500
2037.603850	10.175900
2035.002800	10.462100
2035.362167	10.442200
2033.465450	10.585400
2027.388367	10.957000
2031.800750	10.709300
2034.294700	10.579700
2033.864617	10.618000
2031.048467	10.823200
2039.238550	10.586000
2040.364633	10.554300
2035.811533	10.832700
2048.045633	10.107600
2038.287317	10.716100
2040.291383	10.598400
2037.546817	10.774000
2034.730033	10.965600
2038.771667	10.730800
2037.565633	10.791600
2045.639133	10.685700
2044.361717	10.811800
2048.210733	10.569900
2041.221267	11.015500
2050.244767	10.651600
2048.410783	10.766700
2036.682217	11.422600
2046.875100	10.852100
2048.879233	10.796700
2054.454900	10.492700
2045.920700	11.040500
2043.262617	11.225800
2042.008033	11.337900
2049.079733	10.926900
2049.782217	10.949800
2054.677900	10.776800
2054.328750	10.820600
2051.740933	11.020800
2056.044867	10.774000
2054.554150	10.890500
2053.920233	10.960200
2061.102233	10.663200
2043.522100	11.717300
2056.434833	11.031000
2062.415917	10.699600
2057.826800	10.992500
2052.395933	11.343900
2059.056683	11.031000
2061.798633	10.898100
2053.505917	11.409100
2063.078983	10.849800
2060.287633	11.059800
2061.949800	11.005100
2062.228750	11.034500
2060.111433	11.173200
2065.068233	10.891800
2064.281133	10.957500
2070.291917	10.692700
2061.039217	11.352400
2062.118900	11.353700
2064.891033	11.276400
2072.998817	10.793200
2076.543400	10.589600
2076.193633	10.614900
2081.333500	10.462400
2078.454283	10.634400
2086.160000	10.160300
2076.922700	10.699700
2082.593983	10.494600
2083.204550	10.500200
2086.516100	10.364600
2083.557783	10.547700
2078.832567	10.839100
2085.615033	10.440000
2084.587533	10.625400
2082.661267	10.804300
2079.325483	11.059200
2077.998900	11.162300
2076.267217	11.309800
2081.337967	11.033800
2091.462117	10.439200
2079.499367	11.152000
2075.842500	11.498900
2081.850833	11.272800
2078.563217	11.516200
2077.279117	11.631100
2083.994967	11.288500
2087.926617	11.118400
2083.933667	11.400100
2086.679867	11.238100
2086.086667	11.290600
2087.983350	11.315300
2088.446317	11.309200
2084.553950	11.562200
2085.915050	11.489900
2091.057117	11.346100
2093.058417	11.267500
2096.315883	11.162400
2093.684050	11.307200
2096.171217	11.178700
2105.955617	10.606600
2103.480900	10.870100
2095.113450	11.404400
2108.052117	10.701400
2108.490850	10.677200
2107.400300	10.732400
2098.536400	11.258000
2100.430750	11.142200
2101.914733	11.075400
2105.903017	10.924300
2109.571367	10.793800
2101.392933	11.316000
2108.270450	10.930700
2109.360667	10.909300
2106.938967	11.101300
2106.985917	11.131300
2099.943433	11.555700
2105.333533	11.294100
2108.522067	11.248600
2111.328250	11.109800
2106.843150	11.445500
2105.086567	11.583400
2108.331983	11.389800
2109.568550	11.328200
2112.840867	11.312200
2118.573017	10.985800
2116.389533	11.181300
2124.594533	10.698000
2118.016250	11.133500
2119.685467	11.021500
2118.471767	11.228500
2126.383450	10.807400
2129.238583	10.614900
2116.977283	11.366400
2123.556867	10.999300
2121.517017	11.117800
2130.100883	10.712100
2119.790217	11.461600
2131.479717	10.782700
2127.082500	11.045600
2127.499900	11.125100
2131.196733	10.983900
2131.649567	10.984300
2129.335533	11.180700
2126.623833	11.361900
2123.439833	11.580600
2131.891833	11.090400
2135.617100	11.013500
2134.368400	11.129600
2132.159200	11.277500
2130.343767	11.350000
2135.979250	11.156600
2132.050267	11.422600
2125.890233	11.854800
2129.170033	11.656500
2130.922300	11.565500
2127.103700	11.816600
2147.023867	10.835200
2133.809200	11.651300
2134.965900	11.617700
2132.999033	11.721900
2139.473350	11.417000
2135.509700	11.676200
2139.623417	11.483800
2141.596100	11.382800
2155.275683	10.625400
2141.444083	11.410800
2146.775417	11.180500
2149.439017	11.096200
2144.947300	11.381300
2155.524367	10.793200
2154.553800	10.853900
2154.348533	10.866600
2148.464150	11.247500
2147.652000	11.429600
2146.886517	11.490400
2152.434883	11.193000
2156.064550	10.988000
2153.103867	11.285500
2151.568883	11.441700
2155.208033	11.300700
2152.772000	11.465300
2157.114233	11.208900
2157.178850	11.218400
2159.112483	11.153100
2150.919900	11.689400
2164.711467	10.884100
2164.147983	10.923000
2160.817417	11.149900
2156.138467	11.451400
2162.729200	11.161700
2162.416783	11.268300
2159.866933	11.475000
2163.292800	11.321600
2164.650817	11.252500
2169.675917	10.984300
2167.106017	11.152300
2174.234567	10.870900
2173.168900	10.935200
2166.060150	11.444600
2162.223800	11.696000
2164.538433	11.583000
2164.838200	11.575100
2160.539317	12.020500
2166.358033	11.694000
2179.798233	10.896600
2174.444833	11.220300
2178.643267	11.065900
2173.386167	11.406100
2182.935817	10.894600
2178.620600	11.154800
2184.685750	10.813400
2173.836283	11.494200
2177.010250	11.501300
2177.601967	11.467600
2186.554350	10.982000
2182.905400	11.177000
2182.962900	11.226800
2185.457333	11.172600
2179.779850	11.554100
2176.457317	11.800900
2175.004800	11.903600
2181.037617	11.588200
2184.130550	11.450600
2181.013967	11.770600
2189.030883	11.325000
2183.091050	11.753000
2185.108517	11.645500
2188.015983	11.478000
2188.402967	11.464600
2187.496817	11.684800
2187.605600	11.676500
2200.348283	10.928400
2189.669583	11.550000
2186.334717	11.809900
2190.860083	11.568300
2190.695283	11.618400
2194.181467	11.423800
2195.956850	11.353400
2195.884633	11.343000
2195.686117	11.504800
2194.819583	11.598300
2198.645450	11.448800
2191.580450	11.870600
2182.045133	12.461100
2191.996333	11.895900
2192.185950	11.985800
2192.207667	12.105100
2195.223000	11.990600
2201.207700	11.687600
2191.808383	12.262500
2196.390283	12.015300
2202.346700	11.702300
2207.242100	11.470700
2208.610683	11.381400
2209.680983	11.343900
2201.138550	11.862200
2210.658233	11.353800
2206.278567	11.622700
2201.927283	11.958900
2208.080817	11.619100
2207.424300	11.682500
2195.552100	12.413900
2205.883750	11.963900
2207.883750	11.902100
2205.497783	12.106200
2211.779083	11.766000
2210.141567	11.901100
2213.641383	11.718300
2219.391383	11.424300
2215.471417	11.689000
2218.571583	11.548500
2216.080133	11.681400
2220.648967	11.502700
2228.595917	11.187700
2221.906700	11.615600
2224.096100	11.501300
2222.129300	11.623400
2220.228367	11.773000
2229.361700	11.248100
2221.333117	11.888200
2224.697133	11.709300
2230.092767	11.457100
2231.766333	11.361600
2233.224817	11.291500
2232.078983	11.369400
2228.630083	11.719800
2225.239667	11.943400
2224.833650	11.981600
2223.539067	12.062500
2232.718117	11.662600
2232.637267	11.711500
2234.134967	11.723800
2229.322550	11.985800
2226.829167	12.164800
2230.961500	11.918000
2239.221617	11.563000
2235.180217	11.869300
2232.068433	12.114900
2235.031717	11.951800
2233.218950	12.079700
2235.482783	11.941500
2237.286667	11.889400
2242.583800	11.584100
2244.283017	11.490400
2235.817117	12.016600
2238.992067	11.878600
2228.272967	12.670300
2245.897633	11.678400
2243.288617	11.893900
2235.271050	12.422600
2241.569700	12.065000
2247.204667	11.747800
2254.712750	11.449400
2245.835433	11.979900
2253.468450	11.540300
2248.414867	11.853400
2251.962950	11.767100
2249.709733	11.940600
2252.996867	11.829100
2247.305433	12.165900
2244.173733	12.389400
2253.145117	11.872300
2251.875350	12.010700
2258.776500	11.633600
2261.545783	11.527500
2260.660783	11.591700
2251.946050	12.149600
2252.584033	12.123600
2257.301617	11.910400
2257.642017	11.998900
2257.241150	12.085100
2258.673567	12.058000
2258.687400	12.054200
2252.652967	12.433600
2266.478000	11.611400
2262.248383	12.028200
2265.935533	11.831700
2265.985317	11.838400
2262.366117	12.062500
2260.280217	12.326800
2260.560167	12.377800
2269.897467	11.891200
2260.838583	12.459900
2267.367967	12.092500
2266.056517	12.184900
2263.733600	12.481400
2268.413800	12.269000
2282.970183	11.485500
2270.308217	12.245800
2275.560833	11.934600
2276.351533	11.888100
2277.126167	11.896300
2276.321633	12.000900
2278.690067	11.875900
2268.297383	12.509100
2274.254483	12.198900
2276.745383	12.188400
2281.239067	11.900800
2279.483383	12.104400
2282.208350	11.942900
2280.938783	12.028200
2278.773983	12.206100
2271.863317	12.758500
2268.321150	13.045100
2280.366483	12.351000
2278.492917	12.465700
2276.222667	12.628300
2282.318083	12.270300
2293.998500	11.753000
2283.545400	12.403100
2283.539217	12.436600
2291.406117	11.966800
2289.015883	12.222600
2295.398283	11.877600
2291.365267	12.163900
2287.484217	12.412600
2282.872300	12.686600
2290.194467	12.257200
2292.055367	12.211600
2292.506983	12.300300
2296.631850	12.052700
2297.042017	12.037300
2293.146500	12.325700
2290.218633	12.633900
2300.847317	12.022000
2302.686533	11.959500
2293.721433	12.521400
2297.674867	12.319000
2293.398900	12.542900
2296.879450	12.413900
2298.468400	12.327200
2298.979467	12.371200
2299.538150	12.343100
2299.911367	12.309400
2310.065717	11.703700
2295.148917	12.702400
2302.650433	12.276000
2303.863400	12.230300
2301.633950	12.392600
2311.411783	11.964300
2304.919567	12.411100
2303.672350	12.545900
2307.406117	12.389500
2325.932550	11.349200
2312.733183	12.102000
2310.051700	12.264800
2314.193283	12.033600
2314.050867	12.122800
2319.413900	11.948600
2318.332550	12.031700
2317.790350	12.079400
2311.583233	12.484500
2309.922950	12.651200
2316.953183	12.268500
2316.216083	12.348900
2315.788783	12.393300
2321.982283	12.034200
2313.282133	12.541500
2319.663250	12.338900
2320.334283	12.320700
2319.218133	12.452400
2323.039117	12.224200
2328.115367	11.952700
2322.196467	12.317500
2311.624333	13.138800
2318.833567	12.727300
2335.496967	11.779300
2329.608750	12.121100
2321.334200	12.656900
2322.265767	12.661000
2320.471567	12.793300
2322.372567	12.741700
2326.727367	12.508000
2329.694317	12.345100
2324.362583	12.717600
2330.060300	12.545000
2333.280167	12.373000
2332.658683	12.400800
2330.786867	12.551500
2332.906433	12.591300
2332.919367	12.628900
2337.571567	12.395800
2331.411317	12.780400
2323.842867	13.275100
2327.309900	13.068800
2340.432483	12.420600
2336.915283	12.709800
2342.432733	12.473700
2348.835400	12.088400
2343.491633	12.420900
2340.335883	12.623400
2345.034233	12.543300
2341.438067	12.768100
2339.066483	12.940200
2341.913300	12.781400
2341.754867	12.840400
2342.655933	12.842700
2350.188383	12.426600
2349.015900	12.545600
2351.958967	12.380200
2353.855683	12.269700
2348.611617	12.589600
2349.520283	12.631200
2346.838400	12.803300
2356.127450	12.264200
2354.255483	12.413400
2361.268117	12.173800
2361.294050	12.182600
2359.010200	12.371900
2361.295850	12.249800
2351.540300	12.912200
2357.790900	12.548300
2355.479567	12.679900
2358.307600	12.526100
2357.784917	12.723400
2363.075450	12.454700
2351.788367	13.167400
2361.535400	12.569300
2361.749267	12.582400
2355.752917	12.946900
2355.719533	13.111500
2359.346683	12.917700
2364.319767	12.660400
2362.367200	12.802700
2366.606783	12.655200
2367.371783	12.676500
2367.600667	12.697900
2365.210600	12.910700
2370.885183	12.570600
2369.670783	12.665400
2369.371917	12.713800
2377.251867	12.399100
2373.561750	12.620000
2365.401950	13.123700
2363.525233	13.255500
2369.347217	13.059700
2374.395333	12.775800
2378.162450	12.621500
2373.387150	12.933200
2378.436617	12.651400
2380.253500	12.545000
2379.451217	12.639400
2377.183883	12.828300
2383.662983	12.462900
2382.763800	12.521900
2401.745417	11.380600
2376.307833	12.929700
2378.058267	12.945400
2380.497000	12.869600
2371.887267	13.422700
2375.041117	13.301500
2385.691733	12.676200
2380.766383	12.977100
2381.847867	12.961600
2391.873933	12.507600
2394.539817	12.344200
2390.076150	12.602300
2384.577233	12.948900
2399.894550	12.186500
2399.918083	12.191400
2394.505917	12.549700
2388.339883	12.937200
2391.118483	12.805800
2397.544200	12.431900
2382.012017	13.438600
2386.134850	13.223600
2385.547017	13.346800
2391.819317	13.006600
2392.370883	12.966600
2389.562133	13.160400
2400.130167	12.712900
2409.344333	12.179100
2413.002750	11.989100
2403.857650	12.533900
2401.153333	12.867900
2400.733300	12.944300
2408.382133	12.486900
2402.878283	12.866700
2410.341833	12.436200
2404.424533	12.807300
2404.869733	12.764400
2405.209833	12.800100
2404.413000	12.880700
2415.113600	12.410600
2414.875900	12.424400
2404.126383	13.080600
2408.481083	12.854100
2410.174717	12.946300
2416.046583	12.592500
2415.803183	12.584700
2414.733517	12.675700
2414.320183	12.832800
2414.488383	12.871500
2408.501033	13.293300
2415.213233	12.915300
2426.173917	12.285400
2410.981033	13.185600
2410.354700	13.349900
2416.945650	13.064600
2420.707883	12.877200
2417.713500	13.093400
2415.152483	13.256100
2407.660267	13.747300
2409.356433	13.730400
2417.273000	13.402400
2423.280267	13.071100
2430.195317	12.660400
2428.489283	12.768300
2422.433633	13.199700
2423.881017	13.128400
2424.679433	13.165800
2421.224300	13.398500
2430.550317	12.853900
2429.299917	12.937000
2433.118050	12.890000
2431.576150	13.003100
2432.809100	12.926600
2433.544317	12.884200
2435.160183	12.915300
2439.107533	12.718500
2429.966567	13.310800
2437.890517	12.855100
2427.107850	13.508000
2438.135450	12.855800
2435.518267	13.095400
2437.324167	13.055500
2439.612867	13.027600
2445.806500	12.701000
2436.741083	13.251600
2441.985050	12.948200
2449.100517	12.562900
2443.551967	13.046200
2441.292650	13.201100
2444.124383	13.079100
2449.123967	12.787000
2442.673750	13.182500
2443.752083	13.128000
2437.321950	13.672700
2444.959867	13.255900
2445.734200	13.234700
2444.852583	13.294200
2451.770300	13.057700
2454.966617	12.873400
2454.619000	12.922700
2454.631100	12.910400
2463.340100	12.534500
2450.055700	13.337000
2442.315533	13.857300
2449.987867	13.435000
2452.696883	13.344900
2445.746700	13.796000
2441.388467	14.102800
2454.209500	13.337300
2449.211683	13.673100
2452.598150	13.542200
2462.336400	12.993500
2459.762933	13.182300
2459.871483	13.188900
2459.887417	13.211800
2461.415500	13.162400
2460.228700	13.350500
2457.996700	13.499600
2449.132883	14.073300
2463.210150	13.244600
2456.293883	13.821900
2462.432317	13.489900
2472.543567	12.943600
2468.910683	13.192200
2470.367683	13.059000
2460.845133	13.634400
2462.822650	13.648100
2465.973300	13.519400
2468.718833	13.434600
2464.444900	13.692800
2466.252250	13.632200
2469.795367	13.430800
2482.660400	12.859700
2479.428700	13.066400
2475.333383	13.358700
2475.334850	13.357400
2475.440567	13.400800
2477.056350	13.435400
2481.559483	13.207800
2479.650600	13.356800
2479.453533	13.366200
2479.905283	13.339800
2479.450417	13.379500
2478.043183	13.631100
2477.948083	13.652400
2486.095800	13.246700
2477.556283	13.779900
2483.808933	13.426800
2482.508117	13.505800
2483.227400	13.562600
2479.889550	13.792100
2483.657517	13.615000
2485.694283	13.460100
2477.788817	13.985200
2482.545850	13.738400
2476.598517	14.202400
2490.645183	13.363200
2489.193050	13.474400
2487.272483	13.617300
2492.724200	13.355600
2485.576983	13.810800
2494.809650	13.294700
2497.785667	13.182100
2493.070667	13.477000
2490.835333	13.611900
2494.716533	13.402800
2501.215850	13.184900
2496.165833	13.481100
2500.045033	13.252200
2501.395617	13.204300
2499.553517	13.471900
2500.033067	13.482400
2503.114117	13.312300
2504.208667	13.253800
2500.948267	13.473400
2499.602333	13.584300
2509.401817	13.184200
2505.844617	13.453300
2507.114750	13.448900
2501.498633	13.815600
2504.101300	13.668200
2503.624517	13.703200
2510.841117	13.433200
2508.385633	13.606500
2503.658533	13.893600
2508.297250	13.642400
2509.363667	13.625500
2514.575850	13.454600
2521.360133	13.084200
2520.664467	13.160200
2517.306500	13.388000
2516.939767	13.422100
2512.269767	13.721500
2517.624383	13.549200
2520.842883	13.385700
2522.918067	13.262500
2522.640717	13.301800
2518.191683	13.708800
2524.889083	13.373700
2519.212067	13.717900
2527.346533	13.221600
2521.898950	13.567100
2522.597367	13.515400
2529.033000	13.226900
2527.640100	13.334000
2532.752283	13.048500
2531.365283	13.151700
2529.296400	13.286300
2527.495300	13.414400
2525.909033	13.626900
2526.909733	13.639500
2537.306250	13.052000
2531.983417	13.408300
2525.673617	13.797100
2529.964900	13.565000
2529.709683	13.651200
2532.794000	13.591400
2529.492500	13.811000
2531.941783	13.660500
2530.886467	13.755100
2536.475417	13.544200
2534.402067	13.695400
2539.522950	13.438400
2542.183000	13.297400
2544.739067	13.118800
2543.664533	13.162200
2533.697617	13.921300
2539.569517	13.632100
2543.399883	13.465500
2545.424750	13.352000
2549.069833	13.161300
2550.540567	13.068400
2549.805450	13.248500
2548.655950	13.338800
2542.632767	13.777600
2545.697400	13.601900
2550.199750	13.349000
2547.490117	13.519300
2552.594150	13.400000
2547.967783	13.659600
2553.806683	13.343700
2556.643517	13.197400
2550.503367	13.648000
2550.556067	13.765600
2552.164150	13.701800
2558.449450	13.406000
2560.405050	13.280600
2555.812033	13.571400
2551.471317	13.840900
2550.890617	13.940200
2562.330800	13.280300
2556.806567	13.665400
2555.652333	13.766100
2558.615967	13.605100
2563.751500	13.316000
2563.090767	13.524100
2562.528433	13.566300
2554.999833	14.049000
2559.005817	13.824100
2563.528400	13.672700
2563.273350	13.771700
2570.243633	13.415700
2569.995850	13.447700
2568.079133	13.567800
2563.430067	13.865500
2566.389267	13.798600
2569.972500	13.704800
2572.687767	13.585300
2570.399483	13.773000
2574.613083	13.529100
2568.748833	13.889700
2570.146150	13.839800
2572.889200	13.809500
2577.251483	13.588800
2575.220883	13.719900
2575.370567	13.755700
2578.643467	13.653700
2581.976850	13.469600
2575.286633	13.924500
2578.671450	13.744700
2573.120300	14.090600
2584.676250	13.400000
2576.925683	13.993500
2580.901217	13.797700
2571.360500	14.441600
2579.841050	13.925600
2584.581617	13.657000
2590.481033	13.308300
2592.512283	13.335300
2588.553583	13.605600
2584.327900	13.879400
2580.810367	14.096800
2587.063717	13.789300
2593.014650	13.543400
2593.640400	13.552100
2587.757950	13.926200
2596.034217	13.452400
2593.471417	13.594000
2601.357000	13.168400
2601.759317	13.268200
2588.605217	14.080900
2597.351867	13.640200
2599.933467	13.494400
2596.374700	13.704800
2602.556917	13.344700
2599.287500	13.682300
2593.234983	14.073900
2593.014600	14.115500
2591.599550	14.225300
2597.781733	13.922700
2591.890200	14.278700
2597.463083	14.038800
2595.778750	14.163800
2601.042233	13.882500
2594.188300	14.303900
2601.561417	13.974700
2597.330050	14.266700
2601.347317	14.113300
2608.156300	13.715300
2604.708533	13.951500
2611.066267	13.596700
2606.978300	13.883000
2607.962617	13.975900
2614.578183	13.585500
2608.381500	13.970900
2607.869917	14.021500
2609.455017	14.081200
2606.583133	14.285700
2612.248483	13.997400
2619.504867	13.587400
2613.487833	13.959900
2615.350967	13.866100
2613.080517	14.062600
2617.144033	13.848300
2618.797600	13.775900
2611.626083	14.211000
2607.979633	14.553900
2618.766050	13.922000
2616.635167	14.108800
2613.826867	14.315200
2622.572517	13.887700
2621.083233	14.006400
2616.406933	14.322300
2626.192833	13.750200
2624.027533	13.950000
2612.747167	14.753200
2622.186833	14.218200
2626.779333	13.962000
2627.937217	13.889500
2625.112500	14.213600
2634.260917	13.705900
2634.638650	13.697900
2622.394067	14.446300
2624.924917	14.329600
2638.692550	13.520600
2635.196500	13.778300
2630.309517	14.082700
2630.445950	14.138000
2628.248550	14.293100
2634.998567	13.934200
2630.954583	14.168400
2625.301483	14.718600
2633.746367	14.222800
2632.886883	14.299500
2633.617350	14.266700
2630.541450	14.580800
2641.212067	14.016400
2640.400900	14.150000
2637.438683	14.317200
2659.331067	13.038100
2644.455700	13.927700
2637.802750	14.326700
2642.854517	14.123500
2647.158667	13.908700
2640.530367	14.372500
2641.631967	14.345800
2641.984167	14.335300
2649.674767	13.919200
2646.931567	14.270200
2642.188617	14.574400
2649.401733	14.162400
2651.413817	14.030800
2651.557950	14.168900
2650.153700	14.297600
2654.586550	14.079800
2651.153267	14.301400
2653.077917	14.220400
2652.024767	14.292400
2645.925250	14.677700
2655.440317	14.112100
2649.198433	14.746200
2650.656417	14.686300
2654.109400	14.500400
2655.292500	14.447600
2663.411367	14.144800
2672.767433	13.555800
2657.682117	14.438500
2656.746333	14.543400
2667.655700	13.986200
2660.294683	14.505300
2661.033433	14.513100
2660.879583	14.585700
2656.438200	14.880800
2662.227800	14.543000
2660.549050	14.667500
2665.850950	14.414900
2660.358400	14.764400
2671.190233	14.135700
2664.679883	14.543700
2662.184417	14.721700
2666.753533	14.467500
2668.740967	14.523400
2667.000017	14.665600
2659.414000	15.164900
2672.894400	14.356100
2675.640000	14.323400
2666.079100	14.938700
2664.577550	15.127700
2670.035367	14.812000
2664.769867	15.129100
2674.768233	14.535300
2681.599633	14.228700
2677.134883	14.570100
2679.638717	14.462800
2679.248717	14.531500
2676.514033	14.716500
2680.408217	14.517100
2678.225167	14.728900
2678.868217	14.814100
2687.028300	14.360600
2685.541650	14.466800
2685.916100	14.459900
2689.895167	14.346400
2692.508550	14.199800
2697.969200	13.894700
2689.545450	14.388500
2692.030533	14.218200
2685.919600	14.607200
2688.983517	14.580100
2693.566600	14.312600
2688.072933	14.642400
2687.150433	14.706000
2690.014717	14.679400
2688.877800	14.793200
2695.893267	14.365000
2706.856117	13.732000
2682.294500	15.217400
2688.522217	14.845600
2691.660650	14.732900
2691.291117	14.831200
2692.367567	14.852800
2695.518333	14.660100
2692.419217	14.926300
2697.497767	14.622700
2693.213400	14.953700
2698.215400	14.791100
2692.903317	15.141700
2698.181067	14.904400
2693.607217	15.199000
2708.373850	14.314700
2702.378167	14.693500
2716.494267	14.001400
2701.482083	14.930100
2706.764600	14.647100
2711.128133	14.391300
2708.693933	14.564400
2706.909133	14.695500
2713.233600	14.342300
2707.787517	14.692900
2710.871900	14.618300
2709.484583	14.723100
2715.721300	14.354600
2705.016567	15.024700
2702.366183	15.251400
2711.556150	14.713400
2719.993983	14.370300
2717.083983	14.568300
2718.234033	14.567400
2714.945650	14.807600
2716.523217	14.736700
2707.365250	15.364700
2713.059267	15.056200
2714.051650	15.017900
2707.915683	15.399900
2723.713400	14.616800
2723.306750	14.666300
2719.574683	14.924400
2717.913683	15.027000
2718.151050	15.189800
2723.322217	14.933500
2722.746917	15.061300
2724.582467	14.967400
2720.756567	15.217000
2726.589433	14.876400
2736.504233	14.332500
2731.294033	14.667900
2732.037500	14.657000
2723.832917	15.166900
2729.394650	14.839700
2731.959217	14.688700
2727.620517	15.006700
2727.784550	15.073700
2733.682433	14.716500
2735.335567	14.643700
2736.577800	14.613500
2730.719033	15.107100
2730.465467	15.152200
2730.164517	15.245500
2736.921383	14.869200
2739.151417	14.749900
2749.558650	14.148500
2742.167233	14.739300
2742.742500	14.747900
2740.007200	14.945300
2744.776050	14.663300
2749.224167	14.473900
2748.928500	14.500700
2750.962267	14.442400
2744.834450	14.821400
2744.895667	14.813500
2745.530050	14.789900
2741.697867	15.171700
2749.266550	14.779400
2743.278717	15.209500
2751.464417	14.743000
2749.891500	14.864000
2754.756183	14.586900
2746.915517	15.220000
2740.841967	15.593800
2749.339550	15.125600
2751.985283	14.978700
2752.187567	15.023500
2752.687450	15.122900
2757.486200	14.862500
2759.235933	14.813700
2759.354100	14.819600
2756.223950	15.012800
2760.805717	14.791900
2765.538467	14.655400
2754.422683	15.348300
2765.620333	14.766300
2768.831417	14.607400
2764.972850	14.869100
2764.025917	14.915800
2766.964050	14.876900
2762.789650	15.181700
2764.479150	15.125600
2770.662350	14.760200
2760.791983	15.364200
2760.897850	15.389000
2766.879300	15.225200
2772.267483	14.879100
2773.659250	14.821400
2766.520500	15.278300
2766.560417	15.354400
2772.425667	15.128500
2768.184050	15.417200
2770.735017	15.334000
2775.148200	15.098600
2775.336017	15.103900
2775.536533	15.130800
2782.831600	14.825300
2783.826283	14.784600
2790.266467	14.416300
2777.308833	15.183300
2782.986833	14.848500
2777.592550	15.205100
2785.621983	14.828400
2781.451900	15.090200
2782.858983	15.033300
2784.634233	14.929500
2791.908250	14.634200
2787.273383	14.967600
2795.239700	14.588000
2797.528833	14.460300
2792.842417	14.751400
2793.661783	14.705400
2787.248967	15.211600
2784.598067	15.469300
2788.978200	15.239900
2788.078833	15.324300
2788.025733	15.353100
2791.002217	15.196900
2793.104733	15.091200
2792.507100	15.289400
2797.089983	15.046500
2790.295667	15.474400
2797.685167	15.069400
2802.871783	14.868600
2803.629950	14.832800
2800.954483	15.059100
2806.572383	14.714400
2800.474200	15.098300
2799.963583	15.151800
2802.140567	15.199000
2805.615317	15.028900
2798.178617	15.534700
2800.647750	15.432200
2806.223950	15.119000
2807.159067	15.067000
2807.056367	15.231100
2803.394667	15.512500
2800.525783	15.760200
2810.031250	15.194300
2809.292967	15.259300
2815.663733	14.891700
2827.095700	14.384300
2815.394450	15.065900
2811.923583	15.303900
2819.624250	14.871500
2814.115283	15.241800
2821.277400	14.952200
2812.065867	15.515800
2821.431833	15.017400
2823.060967	14.934100
2818.035517	15.325600
2817.105633	15.423900
2809.287150	15.957200
2821.548717	15.243100
2815.892883	15.645900
2815.708250	15.684200
2821.255650	15.379700
2831.307483	14.786700
2830.526067	14.990500
2833.587000	14.810900
2831.186683	14.968200
2833.552683	14.837700
2834.140250	14.918600
2834.007283	14.958900
2817.336367	16.052200
2832.535067	15.157600
2839.445550	14.745800
2839.603883	14.731500
2836.855100	14.960900
2836.608850	15.084200
2836.631083	15.092400
2834.623267	15.229900
2831.864600	15.413000
2832.101983	15.418200
2835.949083	15.252300
2836.288167	15.331600
2843.571100	14.916500
2844.582767	14.872300
2836.096383	15.446700
2843.379500	15.137300
2844.654517	15.067900
2844.557933	15.165600
2835.308133	15.717600
2840.147067	15.450100
2846.262900	15.083600
2834.077600	15.988700
2839.374417	15.676000
2849.940800	15.062600
2841.906083	15.563400
2847.895300	15.292700
2852.693900	15.032600
2848.353483	15.375600
2850.839650	15.241700
2839.593850	15.926300
2845.827600	15.570500
2846.239967	15.706600
2845.941350	15.831200
2858.471017	15.157000
2855.350350	15.366800
2848.680167	15.788200
2852.073817	15.601600
2856.072317	15.424900
2857.066800	15.490100
2856.699750	15.537800
2859.123150	15.456500
2858.765767	15.501700
2861.556283	15.349200
2862.505867	15.324100
2865.244733	15.341400
2860.193450	15.637100
2861.437817	15.553000
2865.662033	15.280800
2861.589267	15.676300
2863.406383	15.619800
2862.288650	15.687800
2860.115983	15.850800
2865.210433	15.739200
2861.745367	15.992500
2862.433950	16.017200
2858.682683	16.301700
2848.579250	17.013800
2869.023300	15.777800
2867.815750	15.854000
2867.496600	15.872300
2868.874067	15.888100
2875.300983	15.633000
2873.033933	15.759000
2880.176250	15.343400
2873.942033	15.760200
2867.677833	16.299600
2875.368817	15.839500
2874.087000	15.925700
2874.404333	15.922800
2884.075467	15.417400
2880.041950	15.652700
2879.905967	15.727000
2881.130183	15.696300
2882.373250	15.728000
2881.406117	15.768700
2887.423533	15.421800
2881.147683	15.825300
2887.210383	15.629100
2877.291917	16.246900
2869.310517	16.741000
2882.683533	15.961500
2890.094967	15.585400
2892.060867	15.542800
2882.490383	16.159200
2890.697733	15.739200
2888.814100	15.871100
2888.112483	15.918300
2890.866600	15.765500
2887.561467	16.077100
2895.653150	15.603200
2887.916733	16.125900
2902.848467	15.224500
2900.038833	15.401400
2893.694533	15.781200
2897.559783	15.724800
2898.116167	15.691300
2898.312850	15.715100
2891.588633	16.135500
2891.117533	16.309200
2901.605550	15.744500
2911.804867	15.215500
2906.185800	15.560900
2893.601983	16.323300
2896.013033	16.199700
2897.630700	16.306700
2906.697000	15.787100
2911.793917	15.482200
2899.216467	16.230700
2913.939433	15.428700
2900.557100	16.349600
2895.653350	16.687700
2901.888683	16.371900
2899.856383	16.548000
2907.906700	16.108400
2916.833983	15.589200
2910.815683	16.114500
2914.080900	15.963200
2917.491150	15.795200
2916.309300	15.861800
2913.341500	16.037000
2912.491667	16.103800
2923.341083	15.579300
2914.800217	16.104400
2921.811433	15.677700
2920.573483	15.780300
2920.728433	15.921000
2920.883100	15.929600
2912.825267	16.464100
2930.195267	15.459400
2930.368550	15.450800
2928.057667	15.585400
2927.400767	15.796900
2919.512783	16.282200
2927.867217	15.786400
2926.762117	15.867700
2932.595800	15.581900
2929.218500	15.810200
2927.473433	15.952800
2929.473833	15.844800
2930.053467	15.847900
2929.900017	15.902500
2929.391567	15.964000
2929.668000	15.949400
2931.579300	15.875600
2939.222967	15.555700
2942.398700	15.374900
2933.287033	15.938100
2926.375400	16.373900
2930.053533	16.320900
2928.971683	16.430100
2929.696233	16.476900
2944.082433	15.630000
2951.118017	15.214000
2942.654333	15.724200
2939.552017	16.033300
2934.752900	16.372400
2931.020317	16.681600
2943.631517	15.949300
2940.138350	16.164800
2937.986883	16.323300
2929.674667	17.017300
2945.171083	16.115100
2951.890250	15.723500
2942.648100	16.285400
2945.534067	16.203400
2952.064067	15.931900
2952.259517	15.947500
2949.869000	16.106000
2952.172250	15.987200
2945.076833	16.427100
2942.134500	16.602800
2948.396183	16.356600
2944.827050	16.625600
2956.371900	16.027700
2949.753800	16.433300
2952.148250	16.302500
2944.252633	16.804800
2953.445517	16.414000
2954.298817	16.402600
2958.034333	16.237500
2957.981967	16.271200
2949.869283	16.770600
2943.655600	17.168600
2960.115933	16.282500
2963.121700	16.101800
2964.539217	16.031200
2965.379667	15.961300
2965.295817	16.030900
2959.878517	16.396000
2960.742450	16.384400
2963.933667	16.212100
2970.423917	15.859900
2961.735900	16.414400
2966.728950	16.218800
2970.684500	16.077500
2971.541550	16.077200
2968.810883	16.322100
2966.691200	16.448600
2974.132533	16.025400
2973.566517	16.101100
2969.809450	16.492100
2967.778500	16.635500
2964.498667	16.852000
2969.448250	16.578800
2973.065650	16.511600
2975.578183	16.417800
2985.263783	15.922800
2973.444317	16.641400
2971.527517	16.791700
2985.705217	15.929800
2984.533600	16.120400
2976.843867	16.630900
2977.640633	16.672800
2978.781050	16.584800
2986.336317	16.140700
2990.319500	15.914900
2985.901417	16.337200
2986.591900	16.303700
2987.072250	16.282100
2984.871217	16.426300
2990.591200	16.157600
2995.040950	15.996200
2992.523167	16.164100
2994.706733	16.073400
2989.371517	16.424800
2986.023200	16.608500
2987.294217	16.570900
2996.698000	16.146800
2995.513550	16.256600
2996.962267	16.259800
2999.450533	16.108500
2989.967217	16.673200
2987.358300	16.843100
2990.631000	16.701200
2991.999517	16.639000
3000.787050	16.150100
2998.530950	16.303700
2993.752667	16.752100
2990.565817	16.987900
3009.534767	15.949000
3001.666267	16.436200
2995.809083	16.788600
2992.984167	16.969300
2999.840167	16.762000
3000.859800	16.712600
3000.735717	16.741000
3006.840267	16.404100
3003.615417	16.694200
2999.204900	17.087900
3009.008833	16.583700
3008.209017	16.650100
3007.554950	16.695800
3002.280267	17.027800
3009.562533	16.630500
3008.793033	16.725600
3008.510517	16.782100
3006.719700	16.962500
3004.837900	17.096900
3016.726717	16.405300
3014.572133	16.551300
3022.358133	16.214700
3016.861633	16.583700
3019.200517	16.487500
3017.286533	16.626300
3014.955983	16.782300
3014.574300	16.826300
3017.776317	16.804000
3023.719483	16.450500
3026.072783	16.343100
3023.196267	16.528000
3015.605767	17.062000
3014.931733	17.234100
3018.646100	17.035400
3012.556600	17.425700
3012.520900	17.451500
3017.605533	17.319600
3026.115333	16.820100
3027.852917	16.751500
3022.493267	17.083900
3029.412300	16.724900
3026.807733	16.899300
3025.660117	16.995700
3028.157083	16.854900
3032.834367	16.732900
3034.083817	16.685800
3037.018567	16.482700
3035.645483	16.585800
3032.255100	16.929200
3028.103300	17.247800
3028.826400	17.265500
3033.952517	16.968700
3023.462350	17.622200
3029.239983	17.291100
3041.585583	16.581600
3039.824150	16.819100
3042.061100	16.688600
3044.600767	16.535200
3039.469000	16.837700
3043.462367	16.616500
3047.072833	16.453800
3041.575683	16.932300
3042.708917	16.903600
3047.622000	16.657100
3048.121967	16.644400
3050.516983	16.520100
3047.440500	16.714100
3043.813933	17.089500
3044.662533	17.083500
3047.086167	16.964500
3044.876117	17.099200
3050.912867	16.896400
3054.426783	16.755300
3054.664333	16.810500
3051.783917	17.012200
3044.824767	17.449900
3054.221033	16.908900
3050.517167	17.273800
3053.742217	17.144200
3055.248967	17.087200
3061.916400	16.699700
3056.764650	17.012900
3046.599100	17.643200
3062.255950	16.940300
3068.896317	16.504300
3059.088850	17.092400
3056.278500	17.273600
3061.228983	17.028000
3060.783650	17.152100
3059.154867	17.295700
3067.479483	16.837200
3070.080600	16.691000
3073.850833	16.490100
3065.084817	17.037400
3065.444500	17.166200
3065.057600	17.224400
3072.313217	16.874800
3064.572467	17.353900
3069.030083	17.103600
3071.700650	16.959800
3077.827183	16.744500
3072.218083	17.085000
3069.838850	17.250500
3066.966600	17.432000
3072.590150	17.168900
3065.033217	17.642500
3078.258633	16.902600
3081.356633	16.729200
3076.460833	17.040000
3074.891867	17.150800
3081.724017	16.832200
3076.736783	17.226000
3087.120533	16.627500
3077.411450	17.261300
3077.726000	17.275400
3088.158900	16.682600
3083.391383	16.984200
3084.369000	17.089100
3084.853367	17.109700
3081.376883	17.322300
3091.447683	16.732200
3092.714367	16.762000
3091.655950	16.852700
3087.404050	17.247500
3083.858683	17.454300
3084.616983	17.436900
3086.964317	17.299000
3085.970467	17.419600
3097.153800	16.770200
3092.512850	17.134400
3092.001917	17.164300
3092.567383	17.146200
3096.541783	16.920000
3093.600583	17.127300
3084.319533	17.832000
3094.124217	17.278000
3095.846800	17.233400
3090.252900	17.580200
3097.902067	17.125000
3097.846033	17.158500
3095.975150	17.453300
3095.958600	17.468600
3102.053033	17.090700
3096.164850	17.477300
3093.189583	17.757900
3103.262800	17.206100
3110.444817	16.828900
3104.638000	17.195300
3099.731883	17.516700
3106.092250	17.166500
3108.863383	17.071500
3108.075200	17.151800
3109.580017	17.083000
3108.112117	17.195200
3107.324317	17.372500
3100.858550	17.865800
3116.676767	17.034700
3120.414350	16.801100
3119.324617	16.873000
3116.185833	17.057700
3118.706167	16.968100
3116.269800	17.219600
3104.922350	17.942600
3109.753750	17.724500
3116.574017	17.314000
3112.572983	17.579400
3111.728317	17.636500
3122.541250	17.145200
3121.110050	17.256800
3111.319000	17.935400
3122.735500	17.255000
3120.272250	17.400200
3120.490500	17.406800
3127.181700	17.165900
3125.588900	17.295800
3123.753083	17.405400
3127.858250	17.155700
3122.999967	17.566600
3123.676667	17.605900
3118.254617	17.979700
3121.214267	17.824300
3129.422417	17.370400
3127.178183	17.517300
3125.579783	17.655600
3130.753900	17.460800
3128.780700	17.603000
3132.054500	17.453000
3131.125717	17.504800
3133.189233	17.386500
3130.962783	17.554800
3134.228833	17.430600
3138.261583	17.201700
3131.194667	17.654500
3133.978900	17.533700
3135.219067	17.600200
3130.076683	17.948400
3143.767083	17.211900
3143.744933	17.213100
3140.842867	17.408200
3138.812117	17.534800
3134.982917	17.938300
3137.287783	17.871300
3136.205833	18.015600
3148.711083	17.293500
3145.426233	17.526000
3151.006517	17.192800
3140.676250	17.938400
3148.377367	17.543200
3144.528333	17.842500
3145.496600	17.795600
3145.822267	17.784400
3144.900000	17.849300
3152.369783	17.442000
3154.135767	17.503600
3150.612667	17.746000
3145.021800	18.089000
3148.457100	17.957900
3147.767883	18.147300
3150.185183	18.034200
3154.280583	17.822700
3156.831933	17.676000
3155.996250	17.743400
3155.445717	17.812000
3154.526317	18.016900
3158.587133	17.779500
3163.962933	17.473800
3165.070217	17.398900
3159.871667	17.847700
3159.378717	17.934400
3169.333817	17.414500
3168.195483	17.497500
3159.124150	18.038300
3165.529600	17.658200
3166.532667	17.718100
3176.037200	17.190800
3174.333517	17.359900
3170.294833	17.614800
3166.246450	17.860700
3160.010667	18.271900
3159.902333	18.408900
3167.372133	17.962500
3171.350767	17.757100
3169.896533	17.849700
3164.980850	18.170300
3172.445983	17.790600
3173.853267	17.719000
3171.056083	17.925600
3175.670267	17.674600
3177.536617	17.593600
3177.258083	17.633700
3178.542150	17.757500
3166.560783	18.492900
3179.697200	17.732000
3175.550950	18.021800
3177.979517	18.030100
3178.386033	18.027300
3179.016267	18.052300
3182.543367	17.834200
3179.317017	18.040000
3187.904567	17.533000
3186.072533	17.814900
3183.654883	18.023100
3191.317550	17.641100
3188.826533	17.807700
3188.772317	17.849500
3185.110300	18.066500
3184.657067	18.171400
3186.561400	18.100400
3182.674050	18.393200
3190.931150	17.922500
3190.414067	17.955400
3184.180733	18.340800
3184.940133	18.348900
3185.256217	18.506800
3187.240600	18.439100
3195.601667	17.954800
3201.958050	17.606000
3210.387583	17.256900
3205.087233	17.570400
3198.419233	17.986200
3200.334700	17.923400
3205.698350	17.765900
3199.702767	18.160900
3202.865033	18.015600
3190.489067	18.795100
3198.530317	18.415900
3204.203867	18.081100
3204.479683	18.071400
3207.293233	17.925600
3216.631650	17.559200
3213.622117	17.730400
3198.157700	18.665900
3205.766283	18.241800
3216.324667	17.758600
3226.586683	17.181600
3216.401283	17.842500
3210.226667	18.248500
3219.036917	17.727100
3222.567933	17.519100
3210.323933	18.329100
3218.923350	17.919800
3224.046483	17.651400
3227.124883	17.495700
3224.061350	17.656100
3217.054500	18.079700
3217.352583	18.050700
3221.591650	17.804000
3219.690033	17.934900
3217.619317	18.237400
3218.129300	18.261200
3221.138883	18.125700
3216.857600	18.393200
3214.838100	18.524300
3215.007733	18.531600
3216.414983	18.543000
3216.093550	18.588800
3226.872067	17.998000
3225.449550	18.120500
3225.876600	18.188600
3228.774167	18.037300
3231.322067	17.916700
3229.612017	18.031900
3232.304117	18.010300
3230.373217	18.184900
3239.536700	17.653700
3233.726550	18.029300
3235.103767	17.989300
3232.997000	18.240500
3236.778867	18.062800
3236.564800	18.120800
3238.814867	18.029800
3234.832933	18.271800
3234.844817	18.296800
3240.646850	18.022100
3238.131750	18.203600
3236.761083	18.327900
3241.143633	18.115200
3246.789033	17.782200
3243.141917	18.009400
3240.867183	18.157200
3239.799367	18.243100
3241.612250	18.386600
3235.087667	18.790600
3237.908467	18.693400
3250.184717	17.979700
3247.597483	18.207900
3254.104550	17.818700
3243.784183	18.470100
3244.129250	18.444200
3252.662583	18.078900
3251.434800	18.185600
3245.240183	18.642300
3252.953400	18.199100
3250.937400	18.357200
3249.732200	18.414500
3255.509600	18.262100
3252.469983	18.457500
3253.406117	18.409600
3258.997333	18.072600
3245.945917	18.874300
3252.050767	18.680500
3251.300450	18.761600
3258.821750	18.384500
3253.607083	18.698700
3260.390500	18.329900
3269.027717	17.818000
3262.009417	18.344200
3258.387533	18.611100
3253.887917	18.933400
3262.010917	18.451600
3265.308833	18.277500
3263.684367	18.392500
3267.001067	18.390100
3271.808017	18.122800
3271.114067	18.162400
3268.120750	18.342500
3271.885200	18.236900
3270.721217	18.380800
3272.129500	18.352700
3266.892333	18.701100
3267.144150	18.718400
3267.806183	18.702000
3267.311817	18.788500
3274.079500	18.520700
3267.126100	19.012100
3269.792000	18.872600
3281.296533	18.219300
3276.315650	18.536600
3281.399583	18.282300
3288.294417	18.007900
3281.788117	18.397600
3279.940500	18.545300
3284.587350	18.311900
3291.749617	17.962000
3287.729200	18.194900
3282.572017	18.654400
3280.695367	18.766300
3295.213550	17.912000
3282.304750	18.665600
3291.307617	18.260500
3293.168583	18.191700
3289.540683	18.465600
3291.553583	18.358800
3291.535317	18.381700
3286.059750	18.731000
3301.281267	17.910700
3288.297800	18.676400
3282.993483	19.019700
3287.992917	18.772600
3291.267100	18.690800
3291.845633	18.740400
3290.437483	18.877200
3299.361133	18.401700
3293.768083	18.744600
3287.700450	19.097300
3296.167783	18.648000
3298.172683	18.653400
3301.760467	18.454900
3305.990417	18.183400
3306.229133	18.176700
3300.876983	18.658800
3297.867067	18.871900
3310.076117	18.202300
3306.724733	18.426900
3316.335300	17.849000
3300.794733	18.773700
3306.104083	18.601500
3306.067517	18.649300
3314.108550	18.243200
3311.524900	18.425600
3309.341917	18.576100
3312.138000	18.435200
3314.919917	18.385300
3308.347100	18.795200
3302.435250	19.153700
3309.818733	18.734100
3304.052383	19.150200
3308.542833	18.946800
3317.531617	18.465100
3322.763350	18.177500
3314.859383	18.683400
3312.658500	18.881000
3318.263200	18.576800
3313.670533	18.871800
3312.000750	19.024400
3315.925883	18.989400
3319.797617	18.785800
3310.251817	19.422100
3319.298350	18.910700
3326.779167	18.614200
3321.575867	18.985900
3317.856750	19.305800
3323.616283	18.949500
3330.984350	18.516500
3330.460300	18.539300
3322.755917	19.157500
3328.936250	18.858800
3329.347600	18.920300
3331.685067	18.780700
3333.175617	18.696400
3329.687083	18.918300
3347.027450	17.936900
3326.136417	19.209700
3334.475733	18.734100
3336.522933	18.625500
3337.523950	18.685400
3338.050917	18.727300
3328.595567	19.381900
3325.442300	19.622300
3332.335967	19.236100
3330.125950	19.364900
3335.966533	19.074300
3342.646683	18.792900
3349.637433	18.378900
3343.621117	18.730300
3339.357417	18.985900
3347.348917	18.538300
3339.122300	19.057100
3338.472067	19.299400
3345.099517	18.925600
3348.254450	18.767600
3349.276450	18.710900
3343.804100	19.175300
3349.859633	18.896700
3352.124217	18.781300
3347.490617	19.077700
3358.058333	18.429900
3360.176000	18.302900
3359.010117	18.583300
3362.015267	18.448900
3357.375833	18.738600
3364.262650	18.330800
3355.043533	18.897600
3359.186033	18.651900
3360.491900	18.578900
3360.077850	18.595700
3356.794267	18.928900
3364.921300	18.633200
3363.075283	18.765600
3362.357750	18.834500
3359.226700	19.063400
3364.987583	18.736200
3364.903717	18.764800
3361.803733	19.040400
3365.284950	18.860900
3358.769567	19.300600
3366.545583	18.840000
3369.614267	18.684100
3362.173800	19.153100
3364.742683	19.200600
3366.447517	19.157500
3368.364200	19.077800
3366.991200	19.211000
3379.767433	18.490800
3375.099517	18.773200
3376.259633	18.721200
3376.895983	18.698100
3373.042517	19.182700
3375.969900	19.103600
3389.508967	18.325000
3381.809233	18.787200
3386.428467	18.527800
3376.342950	19.133300
3389.211483	18.567300
3388.220533	18.674700
3382.617867	19.015900
3386.115250	18.818000
3386.125700	18.881000
3390.107333	18.711900
3392.231617	18.598600
3388.573300	18.818000
3384.969333	19.059300
3393.933433	18.530700
3389.346233	18.829200
3390.685700	18.770000
3387.705217	18.937300
3392.104367	18.702100
3391.146850	18.761900
3394.433783	18.962700
3390.264767	19.290100
3397.807067	18.854800
3384.480583	19.680300
3394.850467	19.062400
3390.969933	19.303800
3392.786867	19.375300
3407.685450	18.512300
3397.807450	19.100000
3394.603500	19.297100
3400.525333	18.958500
3401.689667	18.904600
3395.114733	19.304100
3398.807467	19.086700
3402.181567	18.894100
3399.746683	19.057200
3404.332783	18.888900
3401.229600	19.170800
3401.703583	19.190400
3393.815533	19.695300
3401.795583	19.252200
3402.806400	19.220300
3400.817250	19.419200
3411.425350	18.992600
3417.637567	18.664900
3414.251750	18.891500
3409.165517	19.210600
3406.243267	19.573300
3415.051850	19.066100
3418.515883	18.967200
3415.731183	19.155000
3420.496767	18.869200
3415.524800	19.172300
3420.487350	19.072400
3414.972617	19.446700
3413.114117	19.555000
3426.060300	18.806900
3423.734683	18.978900
3424.610500	18.978200
3422.439817	19.142200
3419.186633	19.365900
3413.783983	19.720200
3417.529250	19.510400
3424.180600	19.177100
3426.619817	19.127200
3428.130000	19.060100
3424.602217	19.349800
3434.806133	18.755100
3432.526967	18.922300
3428.306967	19.188400
3427.778783	19.403400
3427.641983	19.428000
3432.083767	19.148500
3431.433733	19.225500
3434.103100	19.206800
3440.448350	18.872900
3432.920733	19.407000
3430.048517	19.595800
3433.896667	19.411300
3439.858183	19.059300
3435.163183	19.517400
3442.182367	19.116100
3430.936250	19.812800
3441.012217	19.229800
3446.214667	19.011100
3441.315217	19.311700
3444.048317	19.178500
3446.138433	19.081500
3450.789233	18.888000
3449.401767	18.996400
3453.941983	18.740400
3445.661683	19.262100
3444.007983	19.411500
3443.945467	19.558600
3447.447483	19.384500
3450.229150	19.221200
3455.880550	18.897200
3461.836583	18.698100
3455.443617	19.132000
3458.658850	19.001600
3451.220483	19.469100
3454.440833	19.292400
3446.747100	19.768100
3447.754733	19.868400
3453.802650	19.565900
3461.793250	19.164200
3460.808683	19.253100
3458.716767	19.400200
3460.770333	19.276500
3464.414017	19.220200
3458.785500	19.564100
