#Y dist(nm)	Y force(pN)
0.000000	0.748700
-5.377617	0.983100
-3.975017	0.838800
-2.115333	0.711400
-6.224417	0.913200
-3.108633	0.743800
-9.737683	1.132600
-3.394567	0.750300
-8.266933	0.993100
-15.016133	1.340800
-15.927950	1.289300
-12.020200	1.021400
-13.908433	1.101100
-10.973867	0.917700
-15.640300	1.172300
-16.131917	1.181700
-20.006550	1.410800
-6.803567	0.627600
-16.912150	1.187600
-14.780817	1.026300
-22.361783	1.410400
-16.959217	1.098000
-21.434883	1.345600
-13.488633	0.853900
-16.247367	0.897900
-19.155450	1.038200
-22.628567	1.152900
-16.095350	0.762500
-17.333133	0.792700
-20.721833	0.988000
-17.557517	0.720900
-17.559917	0.635400
-20.444917	0.800700
-13.664633	0.379000
-18.292967	0.668100
-22.639000	0.923900
-29.251250	1.293500
-19.187750	0.611600
-20.730650	0.675200
-31.613333	1.302700
-24.006517	0.838200
-29.720583	1.134400
-24.929317	0.818700
-22.031183	0.536800
-20.785033	0.457300
-20.740733	0.450700
-34.640950	1.266500
-34.774217	1.130700
-26.220617	0.564600
-36.286317	1.118400
-32.298850	0.886700
-31.444117	0.735900
-34.472750	0.839300
-38.523433	0.998200
-40.756633	1.128400
-39.406300	1.065500
-40.629117	1.152900
-44.225650	1.289300
-44.293650	1.208000
-42.380533	1.076500
-42.378283	1.019800
-42.230100	1.002800
-44.523083	1.146700
-42.222233	1.016500
-43.875267	1.049700
-42.322483	0.954400
-46.760567	1.191000
-36.362183	0.546100
-42.800050	0.778700
-46.805700	0.979400
-51.478817	1.206600
-51.691983	1.207600
-47.033500	0.932000
-41.449183	0.579400
-47.998067	0.787200
-39.321400	0.281600
-60.912617	1.548000
-54.202683	1.166200
-52.234867	1.008300
-44.092283	0.500800
-53.747317	1.020000
-54.110467	1.021800
-52.534217	0.838200
-50.246017	0.740700
-53.504133	0.877900
-50.125083	0.549100
-59.786733	1.085500
-57.338217	0.906000
-64.472683	1.338700
-52.508633	0.596200
-60.301433	1.046200
-59.909167	0.895200
-61.087950	0.961100
-65.945717	1.169100
-56.989933	0.662500
-62.276150	0.954200
-62.437817	0.944700
-68.379783	1.250800
-62.510850	0.890600
-66.235350	1.107800
-64.863417	0.990600
-68.694467	1.083000
-63.797450	0.787700
-62.676833	0.713800
-69.124650	1.082300
-69.248717	0.937800
-66.873767	0.783300
-66.256883	0.723700
-64.667017	0.617400
-58.282683	0.167800
-57.395967	0.071400
-76.821250	1.197500
-65.528983	0.530500
-76.318167	1.048800
-73.874133	0.883900
-72.352683	0.764800
-74.124533	0.830800
-73.834883	0.807400
-65.792317	0.310200
-70.670833	0.574000
-76.925783	0.801100
-74.506750	0.657200
-73.549583	0.584800
-77.294133	0.781900
-74.548817	0.552000
-75.736333	0.591700
-82.800017	0.948300
-79.513483	0.746800
-78.238050	0.656900
-80.731733	0.786400
-81.603283	0.726100
-83.569867	0.806700
-87.661383	0.965800
-84.138883	0.767800
-81.349533	0.598300
-81.889383	0.602200
-83.153567	0.542400
-86.492800	0.731900
-80.701200	0.334700
-87.541433	0.760600
-86.489333	0.640600
-90.439950	0.776900
-91.280433	0.816400
-87.690800	0.584000
-99.706483	1.284400
-93.394150	0.907100
-92.057133	0.830800
-87.910950	0.466700
-86.590617	0.328200
-98.587700	0.983000
-92.901267	0.624000
-93.484017	0.655800
-92.513533	0.577600
-96.067250	0.635900
-98.385333	0.761500
-94.144817	0.523500
-100.775950	0.900500
-91.332200	0.182600
-100.018717	0.644400
-97.718600	0.455300
-98.574867	0.501900
-100.593933	0.602200
-99.250133	0.531400
-101.827850	0.615500
-101.595167	0.509700
-111.273200	1.052600
-108.226900	0.856100
-106.548050	0.759500
-108.742067	0.885000
-104.625167	0.635400
-108.775583	0.782200
-107.821450	0.700100
-109.798933	0.758500
-108.037933	0.648100
-107.303050	0.608000
-113.013667	0.941700
-99.311667	-0.006300
-108.647350	0.508400
-108.873217	0.502500
-115.082017	0.888900
-112.402633	0.612700
-111.216383	0.505300
-110.093817	0.381900
-115.128967	0.682500
-120.795567	1.019100
-110.234367	0.392400
-117.786100	0.801500
-110.781733	0.369400
-123.355083	1.079500
-114.567550	0.540500
-119.743850	0.801500
-110.585250	0.197000
-116.630583	0.525100
-115.826983	0.390100
-116.524500	0.434300
-122.073483	0.728800
-123.216100	0.752000
-121.658817	0.572700
-122.941183	0.621100
-119.354167	0.373500
-125.735033	0.722800
-122.179917	0.513000
-127.409117	0.830100
-139.189133	1.389700
-128.812817	0.762900
-134.170133	1.058500
-120.388900	0.260000
-128.072150	0.587300
-124.393750	0.302600
-138.253183	1.079500
-129.371983	0.516100
-122.698417	0.126600
-129.219817	0.500700
-130.651217	0.534000
-132.441733	0.615100
-129.462767	0.421800
-130.400683	0.473800
-138.890817	0.970500
-137.807917	0.836700
-132.982867	0.537900
-135.097883	0.599500
-128.161450	0.158000
-135.397317	0.528300
-129.559450	0.179300
-132.156650	0.302000
-141.388883	0.835000
-141.233117	0.665100
-137.964117	0.481500
-140.499383	0.591700
-137.462950	0.406100
-141.551950	0.592700
-141.904083	0.611200
-143.691783	0.680800
-140.664867	0.492000
-150.430733	1.016500
-148.582283	0.938800
-146.653400	0.697400
-148.997400	0.794900
-141.653567	0.308400
-141.221550	0.281600
-149.847983	0.774400
-152.837583	0.924700
-151.482850	0.789200
-151.077533	0.673600
-152.430467	0.739800
-150.895250	0.641000
-144.583500	0.227300
-150.277100	0.455000
-150.534333	0.433300
-154.988050	0.633200
-157.745650	0.787400
-151.652183	0.451300
-149.610617	0.315900
-155.266800	0.494600
-153.930967	0.417900
-160.421733	0.803200
-147.924483	0.028600
-153.939283	0.235000
-156.162583	0.367900
-151.668867	0.044700
-158.334533	0.414700
-156.321467	0.208800
-162.141700	0.536900
-168.076833	0.893800
-159.704167	0.394500
-162.540200	0.526100
-168.505117	0.783600
-170.339083	0.907600
-170.634650	0.904100
-164.698017	0.504000
-168.237250	0.606800
-157.772567	-0.020700
-168.605833	0.568900
-158.623933	-0.047300
-177.041167	1.019400
-178.301583	1.096600
-167.910183	0.440200
-169.338400	0.506000
-174.040500	0.734600
-174.682600	0.778700
-177.649917	0.923400
-175.248317	0.755700
-170.855850	0.349400
-172.083050	0.445700
-174.770567	0.614400
-173.157917	0.470400
-166.985350	0.006500
-169.585833	0.104500
-173.349817	0.318900
-179.322933	0.601900
-175.540733	0.355000
-181.226083	0.695500
-174.833750	0.282200
-180.861000	0.529700
-184.819583	0.764800
-185.080183	0.734200
-180.878367	0.463800
-167.829033	-0.317900
-171.653083	-0.113300
-181.005450	0.309800
-185.597200	0.564800
-187.397167	0.673800
-179.482383	0.217900
-184.194500	0.399500
-189.624200	0.692000
-188.170550	0.563900
-193.386267	0.877500
-195.724850	1.019300
-188.284950	0.586400
-189.170267	0.492000
-189.970167	0.530700
-193.912383	0.701800
-188.224733	0.397000
-194.709117	0.707100
-184.769917	0.046800
-192.155583	0.459700
-192.269150	0.456500
-195.367200	0.625400
-194.365417	0.559800
-184.483200	-0.037300
-189.622650	0.193100
-192.359150	0.339500
-188.498667	0.060000
-190.284717	0.148800
-194.626133	0.410200
-202.339567	0.829200
-194.113633	0.215800
-195.507950	0.281600
-203.752317	0.768300
-199.835950	0.505100
-193.797200	0.028400
-198.635117	0.311100
-201.181433	0.433600
-201.151433	0.387700
-200.778817	0.332400
-195.736767	-0.003600
-196.288650	0.015500
-206.563650	0.595100
-204.703600	0.464000
-197.204700	0.029000
-205.378550	0.506000
-200.141767	0.171000
-204.031133	0.410200
-204.324950	0.253400
-206.898300	0.340700
-200.600833	-0.069800
-206.157283	0.260500
-204.201583	0.133000
-205.710767	0.222300
-221.505100	1.048700
-214.829150	0.625100
-202.347017	-0.145800
-206.564267	0.071100
-203.874483	-0.124700
-209.399917	0.201600
-226.431600	1.145900
-213.454033	0.355600
-205.514267	-0.147900
-206.264083	-0.128900
-224.479933	0.850900
-210.256267	-0.024000
-205.520750	-0.378700
-215.090350	0.183500
-222.487067	0.624600
-212.673550	0.020600
-214.940133	0.084700
-213.870583	-0.072500
-215.827683	0.046600
-213.733867	-0.099900
-215.064983	-0.063200
-228.707550	0.646700
-223.047733	0.316900
-221.568933	0.188800
-229.708150	0.632300
-227.543217	0.504600
-225.248800	0.356300
-224.640533	0.199600
-225.262633	0.220000
-226.778000	0.250700
-228.815483	0.372100
-225.748083	0.155200
-230.746050	0.458900
-227.252817	0.152400
-231.442367	0.361800
-227.529150	0.090800
-225.021350	-0.112300
-228.809600	0.106400
-222.363633	-0.284900
-237.040383	0.408100
-235.832533	0.368500
-231.236467	0.046200
-234.913433	0.316300
-230.216117	0.006600
-234.773817	0.218700
-231.172383	-0.045800
-231.808283	-0.049700
-230.698867	-0.126900
-236.795417	0.211200
-241.118767	0.447600
-237.123967	0.148800
-235.476717	0.006000
-237.707300	0.069800
-239.474583	0.174700
-239.186583	0.153400
-245.419100	0.518600
-248.290350	0.547100
-240.131467	0.047700
-243.225433	0.224800
-239.307550	-0.023500
-251.758917	0.850800
-240.671600	0.172700
-246.035067	0.489900
-249.111217	0.674700
-250.480450	0.784700
-243.254033	0.383800
-242.882033	0.377500
-248.430417	0.735000
-248.944050	0.749000
-252.209000	0.963500
-250.701067	0.885000
-235.343283	-0.024800
-241.868833	0.326800
-238.958833	0.173800
-233.419267	-0.166800
-228.857050	-0.452800
-232.887800	-0.256000
-232.971617	-0.264300
-237.907717	0.076200
-248.401867	1.020900
-246.904017	0.971100
-240.755650	0.607400
-235.815483	0.327700
-237.476300	0.514400
-231.212117	0.154200
-240.452183	0.695500
-239.495117	0.662700
-236.027983	0.439000
-236.910583	0.503200
-231.834900	0.322400
-229.070133	0.199000
-228.971067	0.188400
-238.305500	0.705500
-233.753667	0.549300
-237.981350	0.829100
-232.490667	0.508500
-232.076017	0.460500
-230.374250	0.351800
-228.001167	0.229800
-225.751817	0.077700
-232.827950	0.487700
-234.703017	0.616200
-234.631617	0.616800
-229.520250	0.395900
-220.118633	0.036100
-225.578783	0.361600
-226.132050	0.395600
-220.771050	0.116000
-220.410450	0.158000
-218.087200	0.024800
-222.087050	0.228500
-223.337950	0.300200
-224.563583	0.463600
-225.001200	0.507800
-226.387683	0.570700
-225.769183	0.546400
-223.490183	0.401800
-221.768150	0.283100
-213.968950	-0.196600
-213.699483	-0.211400
-218.025867	0.237000
-221.971317	0.511800
-216.132733	0.185500
-216.798500	0.184700
-211.863433	-0.112700
-220.863750	0.403400
-211.364600	-0.161200
-213.353733	-0.089600
-219.323650	0.258800
-216.632650	0.097100
-214.788183	0.029800
-213.341533	-0.060200
-222.191950	0.480800
-217.413200	0.176000
-213.910233	0.129400
-213.412267	0.283500
-212.126783	0.199000
-217.792283	0.549100
-217.569250	0.565400
-212.906367	0.435900
-217.223100	0.682100
-219.401867	0.828300
-226.776017	1.277700
-221.656883	0.979300
-209.693800	0.263900
-212.387317	0.446100
-210.581900	0.336800
-208.554533	0.216700
-205.729417	0.038100
-207.900733	0.376600
-203.207850	0.136100
-201.343867	0.016500
-203.347083	0.139900
-203.791950	0.151400
-210.041117	0.543300
-205.135350	0.441800
-202.056600	0.271700
-195.423583	-0.114200
-208.297533	0.663100
-206.769650	0.566300
-199.670400	0.110000
-192.706217	-0.329700
-199.451833	0.050800
-196.008450	-0.086500
-196.673317	-0.020100
-207.595750	0.669500
-204.309067	0.481500
-197.357783	0.112000
-202.759650	0.515000
-201.481367	0.463500
-193.848900	-0.002800
-196.529783	0.135400
-197.137850	0.180800
-198.206633	0.269500
-191.730167	0.023100
-192.514583	0.078400
-199.052933	0.474100
-196.485550	0.320900
-194.055967	0.202800
-191.712367	0.070500
-195.313833	0.269500
-197.672783	0.415600
-200.577433	0.602500
-190.971617	0.021300
-197.501117	0.392100
-196.423833	0.327100
-195.346517	0.274500
-193.101150	0.136700
-197.486583	0.397000
-191.852817	0.074400
-193.060017	0.156300
-194.518733	0.245500
-201.766900	0.659900
-198.023150	0.441800
-200.335333	0.571600
-198.256667	0.454500
-197.933950	0.749900
-188.184417	0.558300
-187.010650	0.495500
-187.155367	0.542400
-193.259167	0.895200
-190.164733	0.709000
-187.421850	0.560600
-186.909250	0.621800
-181.169800	0.275000
-184.550183	0.463600
-177.484883	0.057100
-185.448417	0.501300
-188.690100	0.677300
-186.478967	0.544500
-189.405783	0.740800
-182.857233	0.357400
-185.507200	0.499700
-185.850033	0.526600
-183.522917	0.371400
-185.832250	0.507800
-187.010200	0.555500
-182.093250	0.284300
-187.152150	0.565400
-184.861850	0.603500
-186.051333	0.732700
-180.650217	0.464400
-175.048817	0.160200
-192.911683	1.210600
-182.623667	0.626400
-177.751717	0.370500
-174.334717	0.180600
-178.709500	0.489200
-183.403550	0.889400
-180.621283	0.758800
-181.566133	0.861100
-174.704283	0.454300
-174.670850	0.451700
-176.070733	0.558700
-179.658567	0.788100
-179.195000	0.767600
-174.149850	0.608000
-168.716800	0.313700
-171.483883	0.479200
-171.259283	0.478300
-182.340017	1.133700
-188.054633	1.480900
-176.761217	0.835800
-175.539950	0.758600
-177.081283	0.998200
-176.644033	0.976900
-166.664833	0.418600
-171.801467	0.717600
-170.832367	0.768300
-175.966633	1.140700
-170.502400	0.801500
-165.447733	0.527800
-165.595400	0.549200
-159.934400	0.233300
-166.273383	0.671200
-159.538283	0.362800
-157.987900	0.266000
-158.941017	0.310200
-163.142567	0.572400
-168.584750	0.877700
-164.433067	0.604200
-162.088183	0.482800
-160.523100	0.399200
-146.475150	-0.366100
-155.205617	0.150000
-158.356017	0.320700
-154.449967	0.083700
-155.856767	0.295200
-161.394950	0.659900
-166.554183	1.033300
-160.268717	0.636000
-157.098017	0.481500
-156.394567	0.436800
-154.477750	0.427700
-156.525533	0.606700
-153.124667	0.410700
-158.323633	0.724000
-151.879117	0.349200
-145.814467	-0.013800
-154.337383	0.503500
-152.566633	0.406000
-158.912817	0.918600
-152.681700	0.692600
-151.768517	0.663600
-153.469050	0.757400
-143.817650	0.170600
-153.295150	0.739700
-160.640350	1.198700
-154.993483	0.881200
-149.668933	0.561100
-155.113300	1.128800
-149.697150	0.806000
-148.208833	0.729400
-155.635667	1.155300
-147.743650	0.794000
-147.266000	0.791900
-151.652567	1.060200
-138.535100	0.292700
-144.389883	0.637000
-140.649717	0.396300
-137.461400	0.336800
-136.989383	0.344500
-144.999917	0.823200
-140.532450	0.575900
-147.897083	1.050100
-135.837067	0.419100
-139.796400	0.656600
-148.115467	1.165800
-137.257900	0.515900
-136.162550	0.464600
-140.861217	0.767400
-143.616150	0.981800
-138.308400	0.667100
-137.276550	0.624200
-135.115383	0.517900
-134.039200	0.566600
-130.420933	0.364600
-131.218450	0.405200
-138.596450	0.860000
-142.777067	1.121400
-138.620300	0.881300
-127.515167	0.351300
-125.383783	0.269500
-137.749250	1.002500
-134.941583	0.850600
-133.876067	0.768000
-134.336400	0.800900
-120.233783	0.120400
-129.010717	0.644100
-127.353483	0.539200
-129.409733	0.669700
-133.854050	0.938900
-134.052367	0.969900
-133.311033	0.919900
-129.307350	0.687200
-131.477100	0.921200
-125.145783	0.665500
-127.965817	0.848700
-123.358117	0.573300
-126.495767	0.749400
-119.267583	0.335500
-122.726017	0.502500
-124.034400	0.588800
-126.738583	0.769300
-129.771817	1.191000
-121.586050	0.724400
-121.586500	0.726500
-129.559950	1.217300
-128.509817	1.279500
-119.837083	0.782500
-128.015683	1.291000
-120.134633	0.841300
-119.532917	0.805500
-119.961100	0.827000
-116.725817	0.773700
-117.878450	0.856700
-118.586700	0.896600
-123.136133	1.189000
-117.507417	0.838200
-112.215050	0.531200
-114.752500	0.638900
-118.854100	0.863600
-120.135350	1.010000
-116.284783	0.846100
-121.230617	1.155900
-120.545750	1.123400
-123.968183	1.341700
-123.675850	1.336100
-123.908633	1.374100
-115.100667	0.882000
-113.579417	0.827700
-103.738200	0.485000
-107.930133	0.721900
-103.455683	0.457900
-106.491367	0.644100
-103.254200	0.586400
-109.229367	0.939900
-120.068900	1.583000
-120.402600	1.621700
-109.409117	1.093200
-111.553167	1.243800
-109.560833	1.122100
-100.839200	0.598400
-104.576217	0.825600
-95.473167	0.286800
-87.843600	-0.195100
-91.865383	0.049000
-102.246383	0.634000
-105.776433	0.872800
-95.593083	0.489400
-95.764783	0.506800
-103.512483	0.967300
-94.560783	0.441400
-90.409400	0.183800
-92.544967	0.293400
-94.797450	0.455000
-94.105133	0.441400
-95.943267	0.555000
-101.038750	0.984200
-102.077617	1.061100
-99.331917	0.915900
-96.760750	0.755000
-89.459000	0.484400
-87.287817	0.348900
-96.867617	0.930000
-86.649083	0.310900
-81.647800	0.118700
-87.636433	0.505600
-99.373950	1.216700
-94.357917	0.930900
-93.138650	0.856100
-93.857133	0.896200
-94.929500	0.953600
-88.613517	0.573600
-94.262417	0.918600
-93.762517	0.898800
-82.931783	0.530500
-85.192133	0.669700
-96.071933	1.303900
-90.956283	1.012600
-92.351833	1.159300
-86.629767	0.873900
-86.225967	0.848700
-92.493983	1.224400
-85.646450	0.862700
-85.276750	0.932600
-85.522717	0.966300
-85.626800	0.964700
-90.499100	1.236800
-91.280967	1.271400
-87.145417	1.041300
-88.199483	1.083400
-89.448283	1.159900
-88.800300	1.153400
-83.843383	0.846100
-79.049883	0.811300
-75.733417	0.686100
-78.132383	0.843400
-78.428167	0.859800
-79.598617	0.918600
-84.993700	1.215200
-88.886250	1.480700
-83.335850	1.126400
-81.490100	1.222100
-76.711417	1.000500
-74.856233	0.912700
-76.296117	1.023300
-79.367767	1.217100
-74.869767	0.916200
-74.728367	0.913500
-70.249717	0.775200
-69.019700	0.713600
-70.647817	0.797400
-80.027867	1.372200
-79.704783	1.460200
-71.355267	1.009500
-68.018367	0.785700
-76.656833	1.283500
-76.325950	1.257800
-76.394817	1.275300
-67.550117	0.891300
-66.665433	0.874900
-62.794033	0.631900
-69.803350	1.052900
-76.134583	1.414300
-66.459850	0.838700
-69.021050	0.992000
-65.755417	0.787500
-69.828883	1.016500
-62.267467	0.577500
-60.329600	0.749000
-66.269883	1.127200
-53.692017	0.378000
-61.187333	0.783100
-63.575317	0.990300
-63.934867	1.088100
-63.429733	1.069000
-63.067817	1.078800
-64.569650	1.177400
-68.156350	1.529900
-68.102633	1.518100
-60.475150	1.073000
-59.524150	1.003400
-64.844067	1.334100
-57.988367	0.924900
-56.286517	0.803400
-59.160633	0.997600
-50.830717	0.741900
-61.102033	1.381000
-56.803617	1.118100
-65.437950	1.622300
-47.395017	0.532500
-49.846633	0.691300
-54.009483	0.927100
-51.430267	0.768300
-59.164067	1.455000
-46.676117	0.724800
-44.445817	0.566100
-51.372833	0.972700
-55.334333	1.266400
-52.034483	1.172800
-53.129300	1.226300
-45.531667	0.773400
-42.926533	0.651100
-50.453367	1.098300
-47.294533	0.924700
-43.180300	0.718700
-49.053550	1.056500
-50.540267	1.173900
-43.885867	0.783300
-56.622183	1.554400
-46.003400	0.937100
-46.085300	0.942500
-49.468267	1.166700
-43.755200	1.063700
-42.972200	1.067600
-45.905767	1.238100
-46.806033	1.297000
-39.438500	0.850400
-46.601717	1.284300
-40.457100	0.929300
-37.285250	0.726500
-50.185433	1.618600
-42.962967	1.202700
-39.381733	1.010200
-40.537883	1.108300
-36.623050	0.903800
-38.051733	1.004800
-32.025267	0.656400
-32.950250	0.736400
-41.612117	1.251300
-41.922333	1.276900
-40.172383	1.199200
-40.220333	1.252000
-39.167217	1.201800
-37.016650	1.104500
-33.579883	0.919900
-28.258250	0.608000
-30.655750	0.770000
-33.765550	1.237700
-31.237450	1.096700
-30.002483	1.046800
-30.686217	1.092900
-26.490167	0.966000
-30.974050	1.271300
-36.641233	1.626400
-32.564250	1.373900
-28.613800	1.148600
-28.846133	1.158700
-18.846567	0.767400
-26.092667	1.194300
-21.765467	0.935400
-32.739150	1.595300
-26.365417	1.258800
-23.035600	1.086500
-18.639183	0.829000
-21.267450	0.989000
-26.223167	1.284900
-20.300233	0.919900
-27.091117	1.334700
-26.805533	1.334500
-26.365883	1.331200
-24.180400	1.197500
-17.582033	0.884500
-23.476217	1.443300
-25.775117	1.616100
-21.753700	1.433300
-24.253350	1.592600
-23.083983	1.543900
-13.207133	0.970000
-5.375017	0.562500
-15.382450	1.134500
-20.912167	1.469100
-18.334250	1.329800
-23.514033	1.769500
-18.479967	1.503600
-19.773400	1.604000
-16.347917	1.415700
-6.882517	0.859200
-19.299367	1.613100
-10.169067	1.142400
-8.846283	1.125100
-8.251100	1.107200
-7.577467	1.085100
-3.313617	0.832200
-7.266533	1.054300
-8.374700	1.145900
-10.034333	1.340200
-9.168917	1.303200
-8.817517	1.306200
-17.142467	1.778100
-17.429617	1.902900
-9.151467	1.443600
-7.771917	1.432200
-21.830417	2.305500
-15.083550	1.891100
-11.953150	1.727900
-2.825583	1.309600
-8.731900	1.699700
2.065983	1.100400
-2.598917	1.364700
2.647417	1.060000
0.410433	1.181100
-8.206517	1.782300
-9.898900	1.949600
-4.222650	1.604000
-6.356267	1.738200
5.835817	1.070500
-2.753467	1.647900
5.866500	1.145300
7.375033	1.089900
12.734083	0.779700
9.149017	0.988000
11.875000	0.829100
7.490067	1.130200
-2.773983	1.736500
-1.377083	1.686700
0.322633	1.592100
8.002250	1.116800
4.193567	1.360600
2.197700	1.615100
6.400450	1.395800
10.680700	1.199300
8.437217	1.354600
6.113983	1.491000
12.841633	1.072200
12.037117	1.282300
7.415350	1.560800
15.079983	1.134000
7.401650	1.583000
14.560250	1.230500
7.074217	1.748500
15.288250	1.289300
14.889450	1.355900
11.947767	1.500400
15.507617	1.294900
15.614917	1.307800
16.788350	1.378400
25.041167	0.915700
13.286400	1.640300
17.630300	1.380200
11.881417	1.720000
17.559867	1.360600
17.485850	1.489700
20.089767	1.344100
14.465050	1.703600
16.283700	1.572500
24.061867	1.213900
25.081233	1.188900
27.436267	1.108300
27.121917	1.128400
22.045133	1.395000
20.229083	1.501800
31.628950	0.974600
29.099417	1.095700
26.726100	1.215800
28.991483	1.089900
16.274183	1.886400
28.622017	1.145200
24.171383	1.457100
27.376633	1.317000
32.811083	0.994200
29.466367	1.183000
25.883867	1.423000
28.046717	1.363300
30.903100	1.223000
26.054317	1.558300
23.007817	1.762900
26.201967	1.586200
25.041600	1.653800
31.582917	1.396000
31.819133	1.404600
39.509733	1.007100
31.943800	1.456400
32.764333	1.400100
29.583433	1.602600
31.284400	1.562000
35.273817	1.320100
41.528250	0.923300
26.493667	1.813000
47.634233	0.704400
35.358100	1.440800
35.664800	1.451900
39.780233	1.185000
32.634550	1.714100
33.900033	1.673700
32.648467	1.769200
44.460550	1.105700
43.641967	1.191400
28.645283	2.109300
36.867667	1.626400
40.580550	1.419500
35.357317	1.778500
44.603433	1.324500
45.733400	1.274300
38.727183	1.661700
47.156050	1.177100
46.655433	1.324200
50.214350	1.134200
41.346317	1.670800
49.110483	1.212300
45.934350	1.378400
43.241817	1.544500
53.008900	1.107200
52.611283	1.146900
47.676017	1.438900
48.138233	1.429800
46.886200	1.530500
45.231317	1.625500
39.409867	1.954300
36.411033	2.161800
48.872400	1.572500
51.912117	1.385500
54.007400	1.298900
53.510567	1.324000
51.952383	1.478100
55.389850	1.282700
50.065917	1.596100
51.355750	1.537700
55.980817	1.348900
64.494317	0.918400
54.867083	1.501500
56.272750	1.424900
56.711433	1.435200
57.718283	1.485900
54.278500	1.717700
63.744300	1.190900
59.917750	1.399700
66.719683	0.988200
60.768433	1.336500
58.317050	1.604000
59.562383	1.569000
54.441467	1.909900
60.432867	1.575100
53.563950	2.007200
61.712517	1.513900
43.588700	2.647700
54.975833	1.974600
54.797467	2.002600
58.006933	1.816200
56.906567	1.960600
65.698000	1.496600
65.835717	1.508800
61.132433	1.801200
63.030967	1.692400
59.583417	1.929100
66.989883	1.518300
62.024600	1.928600
65.172100	1.766600
67.444133	1.660200
71.709850	1.399400
76.928167	1.062700
65.813117	1.752400
67.139333	1.781700
66.120467	1.874500
70.510200	1.674800
66.317267	1.897000
82.619600	0.933800
74.833217	1.407400
70.880317	1.669000
82.903233	0.969300
73.883217	1.525300
67.287917	1.922200
70.370200	1.862900
78.893100	1.392200
80.630817	1.356400
75.873383	1.641300
86.237183	1.051500
78.731800	1.495400
85.630867	1.146100
77.120217	1.731100
85.845483	1.240800
83.349450	1.399400
79.745967	1.612900
77.481900	1.735400
73.258000	1.990700
82.242417	1.552300
83.600850	1.469300
83.597750	1.434200
82.694317	1.520800
84.523750	1.538600
92.410883	1.089900
82.183533	1.782300
78.930417	1.948600
89.876883	1.296300
86.087183	1.564200
87.570567	1.592200
83.552183	1.835400
81.913617	1.983700
85.958650	1.770500
82.981467	1.966600
90.932133	1.481400
83.843400	2.039300
90.741033	1.641000
98.143983	1.152900
94.173767	1.419700
91.331283	1.660200
82.537217	2.254300
87.791717	1.960600
88.963533	1.934100
92.979700	1.696400
88.525017	1.978300
89.917250	1.918700
93.913867	1.728100
101.590567	1.280200
93.567567	1.750000
91.820850	1.860500
90.397467	2.023600
97.271200	1.629800
97.397117	1.658800
98.326150	1.636700
92.220767	2.041900
82.996367	2.596300
94.184667	1.956700
93.274100	2.046500
101.838650	1.672100
92.199633	2.291100
95.894533	2.086500
91.928833	2.314500
96.986700	2.081300
99.090417	2.024800
101.620200	1.876700
100.270300	2.007500
105.557850	1.676600
109.401633	1.443300
112.167717	1.347400
104.412233	1.877400
105.029067	1.850500
109.809917	1.591000
115.713317	1.224100
107.365083	1.701600
106.261833	1.771800
103.551700	2.069300
105.095683	1.995300
105.141283	2.021700
103.204150	2.131100
103.885783	2.238600
116.133317	1.540300
114.072717	1.713100
102.452433	2.389500
117.046300	1.509500
106.098517	2.190100
111.462267	1.999600
120.291467	1.489900
107.268267	2.306800
120.955717	1.524400
117.273633	1.725600
111.981067	2.032900
117.748617	1.757500
104.333983	2.655900
109.549233	2.372700
113.728617	2.122600
118.797617	1.882300
122.303233	1.764600
123.992783	1.672500
118.543667	2.043700
126.532200	1.557500
122.126717	1.806400
116.003500	2.171300
123.994850	1.802600
115.263817	2.349400
133.999417	1.291900
131.201100	1.434500
131.505283	1.407300
131.307917	1.390900
132.026533	1.427700
119.024150	2.177600
126.222683	1.765500
127.488717	1.666900
116.609300	2.393300
127.979083	1.739100
138.937533	1.100400
123.197333	2.077200
132.261550	1.530500
127.176033	1.869900
124.115533	2.097000
118.512017	2.539900
123.741000	2.259200
129.384117	1.975300
136.444033	1.541700
134.660033	1.666200
129.081883	2.019600
137.326917	1.627600
134.830267	1.772500
129.684183	2.088600
135.860250	1.738100
138.705983	1.690200
138.426317	1.718500
140.122383	1.661700
141.943750	1.566200
143.509683	1.490100
142.432800	1.517900
139.399550	1.804100
144.368417	1.569400
145.488950	1.547300
134.848450	2.168000
136.461617	2.072500
137.230333	2.055000
137.859383	2.156700
136.983667	2.243800
138.536000	2.193800
144.978600	1.847900
144.303750	1.872500
144.154333	1.881300
148.798583	1.613700
150.001183	1.678200
154.854300	1.403000
149.952917	1.666900
151.469200	1.583000
147.911100	1.901000
151.723700	1.667600
157.329983	1.355700
147.556750	1.946900
149.612583	1.841400
156.510367	1.393300
141.090533	2.451000
144.413317	2.285800
147.586250	2.138900
149.653817	1.987600
148.979817	2.127100
156.339217	1.716700
156.391183	1.782300
155.429350	1.799600
148.093750	2.261300
157.491900	1.696400
158.080217	1.727200
152.864100	2.089100
162.088667	1.560100
156.190700	1.933100
160.515200	1.687100
156.865583	1.914600
156.719517	1.951600
161.428267	1.773100
165.947000	1.527500
155.863217	2.163400
156.115667	2.119600
159.317467	1.960000
157.053983	2.110500
146.063317	2.883700
149.022483	2.694900
147.862733	2.803500
167.904550	1.653800
158.076367	2.285800
158.359217	2.278600
150.772233	2.726400
157.316217	2.350000
154.579233	2.663400
169.376850	1.775300
160.080717	2.334400
161.843233	2.288700
165.256783	2.113500
164.936450	2.147000
157.134100	2.620100
162.695950	2.332400
165.880433	2.158500
176.385133	1.563600
170.128200	1.920200
162.802933	2.377800
168.872350	2.009300
165.288400	2.286500
168.151533	2.128500
169.477667	2.092300
167.475867	2.207800
175.842050	1.701500
167.592600	2.204900
166.242000	2.428700
167.260767	2.395600
174.902433	2.034000
178.221350	1.827200
185.661467	1.385200
178.145667	1.834000
179.436017	1.888000
177.172950	2.050700
177.650817	2.043700
181.229167	1.848700
182.802017	1.755700
182.541867	1.783900
177.329667	2.126200
182.226783	1.858500
175.951033	2.236200
176.553183	2.196600
174.777517	2.335000
178.268367	2.243200
183.382967	1.936600
177.432400	2.303300
180.071383	2.162700
187.394283	1.757100
180.154917	2.183500
187.051100	1.898300
187.954050	1.885100
177.749150	2.555900
176.038600	2.646800
178.988700	2.527100
182.499333	2.331300
174.259333	2.980800
187.614300	2.191400
195.814033	1.729800
185.291400	2.354900
178.529400	2.831300
184.808283	2.486400
197.713300	1.724600
192.914200	2.032100
184.659033	2.550300
190.100250	2.234600
192.830000	2.136500
194.037667	2.171800
183.989117	2.795200
189.148467	2.475400
188.214200	2.568200
182.049467	3.099400
191.764617	2.556100
202.434383	1.957500
198.826667	2.167600
205.769950	1.745600
194.622667	2.405800
191.812833	2.715300
197.726583	2.389200
198.726517	2.376700
196.608083	2.501100
211.683950	1.631900
196.843350	2.495000
198.332617	2.509600
198.837750	2.530700
204.262933	2.238600
208.410233	2.011200
209.154917	1.981600
203.145483	2.311800
209.536300	1.936100
201.465617	2.439700
201.051767	2.476000
208.343917	2.055700
207.960083	2.063400
211.818767	1.980400
215.286133	1.794300
211.870950	2.021900
217.926200	1.642700
220.632733	1.465500
208.667400	2.167400
203.558617	2.612800
205.387100	2.531900
215.139250	2.003600
216.814467	1.910800
213.879567	2.079700
211.915550	2.181500
215.667933	2.115300
218.979250	1.908200
205.184483	2.743200
206.069100	2.690300
212.722067	2.340400
214.575450	2.255000
205.067367	2.894200
217.446350	2.168300
213.484133	2.401200
213.919750	2.396000
225.212333	1.760400
218.069550	2.277200
216.707233	2.406000
224.256733	2.014500
227.197600	1.847300
221.331233	2.179500
216.839717	2.481100
222.979550	2.222000
227.663800	1.954700
228.737650	1.871000
229.841800	1.827500
220.822333	2.422800
225.632000	2.143700
217.342467	2.675200
222.161983	2.393100
227.623283	2.070000
217.001450	2.704700
229.454633	2.094900
221.915833	2.563800
226.423550	2.378900
227.681200	2.319500
229.249117	2.239300
227.841683	2.313600
222.635033	2.635500
230.222400	2.171000
220.628617	2.771800
230.746200	2.141600
228.618667	2.416900
226.233000	2.680700
233.877683	2.259600
235.828950	2.185100
232.459383	2.411700
231.898517	2.449900
223.661217	2.937100
229.824533	2.705400
233.089750	2.535800
234.975500	2.452700
244.847767	1.844500
247.574283	1.679700
242.378350	1.994300
235.308983	2.432700
234.221800	2.510000
240.721983	2.134500
240.539417	2.165500
235.957233	2.450700
231.712067	2.685100
236.311133	2.595300
229.345833	3.031800
233.533783	2.826000
242.499717	2.275900
235.987383	2.731200
242.023433	2.470200
235.775483	2.887800
237.746800	2.792000
237.893400	2.799800
246.094917	2.349400
249.243867	2.181700
248.020917	2.306800
241.729933	2.707200
245.241033	2.554200
252.515833	2.109000
254.786600	1.977500
250.722667	2.242900
245.864983	2.689200
258.011317	1.971100
250.958250	2.389400
240.445300	3.026900
253.033433	2.402400
252.015450	2.506100
264.972033	1.778100
257.055333	2.239200
255.878950	2.312000
260.657050	2.032400
255.788200	2.464100
256.400617	2.414800
256.963700	2.393300
255.989867	2.459200
254.265433	2.666700
251.800250	2.854100
256.579600	2.602400
254.306250	2.770700
270.085283	1.782300
260.484150	2.382800
261.246467	2.408500
259.808100	2.576300
261.571533	2.487000
265.027333	2.335800
262.465867	2.508100
259.154767	2.696200
260.927333	2.595300
262.326300	2.609900
267.323617	2.341300
264.023083	2.547000
268.163050	2.282600
264.748217	2.598700
262.578033	2.749500
274.420517	2.032900
267.346250	2.461100
264.985783	2.595300
260.682700	2.860700
263.758833	2.809500
275.530317	2.155300
268.571050	2.576900
278.621400	2.003900
276.040117	2.150200
271.729883	2.372100
283.410750	1.876700
276.483667	2.257300
280.893967	1.960600
274.769083	2.383500
278.713850	2.164700
270.204917	2.711200
280.079033	2.120400
276.112400	2.388500
275.371583	2.448000
280.146000	2.172200
280.355217	2.179300
282.927883	2.125800
281.183683	2.255100
289.206817	1.815700
281.439617	2.276800
276.255033	2.607900
286.817350	1.977200
285.561900	2.180900
276.947083	2.733600
277.923483	2.732400
285.756083	2.274600
286.985733	2.216400
286.413300	2.273600
286.766333	2.369700
281.693117	2.691400
287.971433	2.369700
288.295333	2.335800
288.528083	2.385900
291.310250	2.304800
288.508250	2.500400
289.018833	2.515800
291.707133	2.371200
293.369817	2.260900
291.221367	2.409400
295.196750	2.312900
295.218550	2.312000
291.631550	2.538500
290.665733	2.623200
295.951883	2.408400
292.102100	2.648900
301.439867	2.127100
293.403617	2.642500
297.465050	2.402900
288.949450	2.901200
293.146667	2.762200
300.286383	2.387400
300.177817	2.418400
299.701283	2.445600
291.029850	2.992100
292.358000	2.913200
297.783250	2.659700
295.413100	2.845700
300.565817	2.611000
290.482717	3.176800
295.017950	2.906300
298.247183	2.708700
301.143917	2.548900
302.596733	2.625000
304.564500	2.509400
310.580500	2.162600
309.677600	2.206700
306.132583	2.553300
308.635133	2.397000
308.651200	2.423300
307.440483	2.490000
303.562050	2.862800
310.735517	2.462800
308.948267	2.611000
303.932650	2.909600
313.196283	2.409600
303.718600	2.955200
311.181133	2.499900
302.442917	3.046300
314.692783	2.395200
310.335350	2.713400
316.413383	2.390700
309.494000	2.778800
307.009383	2.956200
307.385983	3.000300
309.273350	2.930900
308.762067	3.021400
308.963750	3.019400
318.839000	2.459900
316.011300	2.628200
324.521933	2.226600
316.894033	2.703000
320.418167	2.538400
322.530467	2.405800
317.253667	2.730100
322.466117	2.426200
321.781317	2.620300
320.958317	2.656900
329.079467	2.175700
321.826600	2.611700
329.590367	2.274700
325.555583	2.538300
321.502033	2.811600
329.816433	2.322900
320.964300	2.837600
317.577450	3.068600
324.295783	2.760900
322.563183	2.885100
320.048683	3.060300
326.308217	2.698000
328.723083	2.555100
321.545217	3.002800
331.817217	2.417500
331.237317	2.569000
326.576267	2.854900
327.434667	2.854900
321.991783	3.215400
328.394750	2.832500
325.195250	3.055100
337.542717	2.472700
342.476767	2.163700
328.500917	3.010900
327.592383	3.055800
338.144067	2.479900
332.037133	2.866500
329.631833	3.039600
332.788400	2.862800
342.163667	2.294800
333.818200	2.799800
334.739067	2.779600
342.478067	2.346100
337.092883	2.730600
336.829200	2.768300
338.864050	2.620700
338.794300	2.634800
335.607967	2.904700
340.989150	2.690300
345.747467	2.437300
341.011633	2.705400
344.217867	2.620000
334.517350	3.267500
339.219983	3.017700
340.224200	2.981600
345.048667	2.718700
336.759133	3.236100
340.033117	3.048700
337.670467	3.286600
340.961800	3.091400
349.620833	2.572200
349.637050	2.581100
341.461483	3.218100
344.614467	3.069100
351.731867	2.693200
352.240850	2.680100
356.101100	2.464100
346.389033	3.045000
359.951783	2.350200
359.284217	2.416300
353.036467	2.866300
356.955617	2.630200
348.430983	3.144600
358.257567	2.558500
360.007850	2.537600
348.030817	3.241600
352.048733	2.988600
347.294667	3.283000
354.093967	2.939200
356.344733	2.860800
359.865483	2.680200
357.994133	2.833500
354.502017	3.055300
359.388767	2.770000
355.152833	3.041100
357.154250	3.085700
363.475283	2.697900
366.295817	2.602600
363.791533	2.744700
364.405717	2.696800
366.401333	2.604300
363.581083	2.924400
362.562133	2.998500
364.806167	2.889700
364.010867	2.925700
360.666250	3.243200
372.500683	2.615100
376.184483	2.430000
374.310183	2.512500
371.269667	2.683600
378.911750	2.230100
379.579433	2.225700
379.748367	2.282500
372.218833	2.726400
370.645717	2.827600
375.658183	2.555700
370.326033	2.916600
373.426450	2.753000
370.072467	2.975800
368.571367	3.090700
373.750517	2.826400
370.200800	3.041900
370.463150	3.027500
379.263767	2.520400
377.657383	2.755800
375.172000	2.894900
382.602233	2.460600
370.912400	3.152000
374.481783	3.094200
372.658200	3.226700
374.099667	3.201400
379.667217	2.889700
383.549867	2.642500
381.006517	2.812300
389.760883	2.350200
382.423683	2.802900
383.290150	2.789300
387.850967	2.518000
371.909150	3.485900
378.272933	3.129900
380.812517	3.088300
381.026883	3.081300
381.102850	3.083000
389.314850	2.604200
394.984400	2.343500
386.895983	2.900400
388.150550	2.846600
386.477133	2.992800
396.871533	2.386200
393.050667	2.609500
388.267183	2.930100
396.602900	2.552000
396.184533	2.573100
389.056033	3.055500
391.400000	2.917100
386.926050	3.213500
388.260950	3.146000
381.272783	3.639000
390.710500	3.097700
390.580500	3.144200
388.900900	3.265100
387.902933	3.376800
398.397417	2.795200
401.585500	2.700200
402.752983	2.596800
394.692867	3.078700
393.221017	3.183100
402.888600	2.671700
397.006133	3.096300
397.474933	3.062100
401.176367	2.853700
398.481633	3.039300
405.797050	2.707700
411.840150	2.362700
406.607100	2.714900
410.164367	2.489500
409.247067	2.546200
405.459967	2.803300
401.076683	3.118800
406.437233	2.826000
406.573850	2.854400
404.610833	2.983800
408.325183	2.736900
408.455100	2.761400
408.472267	2.873200
407.008183	2.999100
415.239750	2.545400
409.068850	2.951000
408.094433	2.999100
406.160550	3.135500
409.484633	3.015300
411.386183	2.991300
412.436017	2.957200
417.533650	2.692100
412.462917	2.986000
414.967917	2.833900
417.588450	2.697800
409.515983	3.321900
410.689200	3.255500
415.851283	2.969400
414.508733	3.052500
415.290867	3.141400
418.948583	2.956500
417.340033	3.105300
415.177000	3.241100
419.001133	3.041100
427.685183	2.543700
421.702917	3.012700
425.747533	2.801400
425.085583	2.878500
424.105433	2.959800
427.254350	2.755400
423.083667	3.014200
433.174217	2.571100
429.921883	2.772300
427.619967	2.915200
429.486200	2.800400
425.433550	3.125000
433.127067	2.707900
429.656550	2.948900
429.978933	2.943600
426.715550	3.149000
422.900733	3.391200
425.089067	3.290200
426.226283	3.274500
425.356567	3.331300
428.665617	3.131500
426.227333	3.321000
421.278967	3.686200
426.575867	3.424000
438.319200	2.786900
436.684667	2.883700
434.644600	3.013100
435.727400	2.948600
437.610883	2.964600
433.658717	3.232900
430.107567	3.527800
427.873117	3.646900
433.547083	3.389400
441.475417	2.914600
445.124200	2.799800
437.100000	3.333200
444.789500	2.852300
437.009033	3.372600
437.614333	3.345300
440.151517	3.198400
447.640100	2.831300
443.451050	3.093500
442.505050	3.162500
446.814450	2.918300
443.920700	3.116900
444.247150	3.125000
449.093367	2.834800
443.070150	3.241100
441.929483	3.340500
439.521200	3.505100
441.591733	3.384600
442.751267	3.452500
448.058400	3.150500
446.238050	3.300200
444.317833	3.448200
449.782400	3.159800
450.433267	3.112600
448.447683	3.380700
452.177683	3.158400
452.984333	3.112800
451.080333	3.239700
450.433967	3.383200
451.162867	3.394000
454.166733	3.235200
455.920767	3.141700
451.102400	3.443900
448.946317	3.579400
463.292183	2.766300
463.670033	2.780100
458.076383	3.153000
459.949233	3.030600
454.287867	3.376000
459.711133	3.084300
461.138333	3.019200
467.676700	2.691200
473.622050	2.339000
477.783917	2.093200
462.395550	3.008600
457.851133	3.421200
467.241083	2.892000
459.875517	3.396700
459.699550	3.417200
457.178267	3.595000
461.176233	3.366300
457.415117	3.717100
464.397200	3.333200
466.118400	3.256100
474.157700	2.774000
468.202917	3.272500
469.204883	3.249600
472.996233	3.030600
472.190767	3.102100
479.886467	2.644600
472.026967	3.121900
475.282950	2.964500
471.675733	3.210000
473.763050	3.177500
468.521800	3.459500
474.310067	3.107800
464.054217	3.727900
476.254883	3.063600
483.312133	2.725200
473.329100	3.338600
473.209050	3.349400
484.470500	2.682800
482.502783	2.790900
482.589100	2.786900
477.459067	3.109300
482.701250	2.787200
474.073283	3.617100
475.552017	3.531100
482.939083	3.105300
484.715867	3.006400
487.374367	2.957200
490.216833	2.823600
490.860567	2.773600
492.623350	2.688500
483.258233	3.260100
484.987900	3.159800
472.312183	3.943200
480.716250	3.429800
483.649833	3.290100
486.943483	3.086400
487.562967	3.139000
486.554250	3.263600
487.865517	3.229900
486.481267	3.328300
487.049217	3.310000
491.474817	3.040600
494.529283	2.942100
491.819283	3.217200
490.941233	3.260700
485.317550	3.626600
492.887717	3.195400
501.122017	2.830600
486.694833	3.700200
494.348867	3.248800
484.669650	3.835100
495.110083	3.247200
499.931250	2.959400
495.615817	3.399100
496.588017	3.406300
491.338167	3.759100
495.817933	3.495900
499.580500	3.276800
496.453583	3.474900
493.190983	3.883800
503.412683	3.249000
503.003417	3.284500
498.121033	3.604800
502.290567	3.507100
505.511383	3.366300
499.457300	3.734900
501.010383	3.639600
512.849333	2.938200
506.932433	3.296100
507.904350	3.286700
504.683900	3.644600
508.841567	3.406600
508.920667	3.403900
510.665650	3.305000
516.594450	3.092900
510.933883	3.427800
509.406883	3.516600
508.524433	3.599700
517.708667	3.049600
515.427683	3.191700
526.995633	2.684400
521.003633	3.064200
518.883417	3.160000
511.730700	3.599300
511.859000	3.712400
519.634150	3.288800
517.119983	3.436200
517.494967	3.433300
516.530333	3.492900
507.883667	4.011100
514.095283	3.782100
520.482267	3.479500
510.500033	4.097100
520.737267	3.512500
516.731600	3.759200
515.732733	3.826200
521.524300	3.522800
522.929967	3.451900
514.101333	4.053000
524.380517	3.495400
532.189867	3.064300
531.680183	3.133200
525.773700	3.472700
528.948417	3.319900
531.063800	3.184700
531.678267	3.126100
537.625050	2.789300
525.609833	3.662100
538.883300	2.892800
534.990850	3.144800
530.842300	3.399200
534.147983	3.183300
529.627800	3.450200
532.466433	3.321000
529.950667	3.476800
527.942183	3.851400
529.742533	3.808800
531.589167	3.728200
533.088967	3.646900
527.398233	3.974700
533.601967	3.636100
541.945267	3.148000
540.339333	3.269700
533.829967	3.749200
538.908500	3.482300
541.606367	3.355000
529.333317	4.096300
542.004217	3.378700
542.659967	3.484000
546.011067	3.296800
541.850517	3.546100
546.322650	3.269000
546.743800	3.212600
545.198600	3.319100
548.735150	3.331700
543.744550	3.656300
544.079567	3.620500
550.692500	3.236900
549.713517	3.422200
554.160300	3.177500
548.404000	3.530600
545.176500	3.743900
541.336867	4.000900
548.158850	3.584900
565.689167	2.721100
556.052050	3.281000
549.506483	3.681000
557.343333	3.225000
558.159500	3.265400
556.613800	3.397700
546.506083	3.995700
554.454500	3.513800
554.548000	3.522800
552.098267	3.674200
557.884533	3.435300
557.271583	3.598200
554.506033	3.781500
557.621600	3.608300
558.287317	3.565600
560.295383	3.476100
552.636933	3.968700
553.661317	4.086400
560.326683	3.710400
560.119033	3.756300
555.526317	4.041100
559.120300	3.825200
560.484617	3.749500
559.587833	3.805800
563.714067	3.562600
569.182117	3.517600
567.053600	3.655700
573.100133	3.283800
566.057717	3.690100
575.607833	3.157200
565.398517	3.779500
565.780000	3.775400
563.452983	3.922200
571.064617	3.489400
563.136867	3.998800
566.575633	3.953700
573.062200	3.620000
578.101950	3.334100
579.883733	3.246300
577.923283	3.373500
563.019017	4.264900
573.276483	3.664800
577.852800	3.410300
574.331517	3.646000
585.859250	3.199100
581.928767	3.431800
580.816983	3.506400
588.315867	3.071800
579.367517	3.556300
580.687050	3.492200
573.941183	3.887100
581.516317	3.440500
576.323317	4.006900
582.238750	3.715100
583.147900	3.676400
584.984133	3.588000
579.958067	3.901300
577.997417	3.982900
576.462150	4.101200
576.680717	4.109800
578.786417	4.285900
582.182033	4.115400
586.429183	3.885900
593.908483	3.441000
589.524183	3.854100
580.672583	4.342500
579.086683	4.464900
594.115500	3.591200
592.715417	3.728800
591.287333	3.907200
596.964167	3.565600
598.354083	3.487200
590.887417	3.929500
596.213367	3.588400
595.548550	3.638300
605.277133	3.059400
595.364583	3.655200
593.078133	3.769500
587.189067	4.132000
597.479717	3.663100
602.210933	3.373800
596.638350	3.722900
594.466900	3.874700
592.336333	4.148400
595.884750	3.947300
588.662083	4.428600
597.914400	3.884600
594.656700	4.130000
594.373050	4.175600
598.529783	3.981000
601.134967	3.834100
601.459167	3.832300
593.996350	4.297400
604.181633	3.780000
605.497633	3.826500
606.497250	3.806000
606.958583	3.788100
605.153933	3.892500
608.805433	3.673800
607.764767	3.770500
611.676267	3.741100
614.657750	3.555800
610.742883	3.823500
616.558133	3.495900
620.703350	3.369800
615.107450	3.718100
617.648550	3.551600
617.029517	3.593800
613.548233	3.940200
617.433617	3.716200
613.574050	3.948200
617.771917	3.698500
614.879033	3.997800
614.463067	4.021600
608.618550	4.388300
614.838183	4.040700
618.156417	4.021900
608.462667	4.591000
613.246383	4.323000
616.053233	4.162200
613.728550	4.383800
619.099150	4.153700
618.882950	4.165100
619.085933	4.157100
626.454533	3.709800
625.012900	3.802400
627.814150	3.642800
617.296267	4.264000
617.544217	4.267600
625.442450	4.088000
635.312233	3.518400
625.621317	4.092400
630.728533	3.780600
635.791550	3.593000
630.805850	3.914000
637.957883	3.507900
632.244467	3.835900
626.667900	4.189700
626.144250	4.211300
623.566667	4.579600
626.150850	4.426400
630.261700	4.199600
637.888000	3.755600
634.308450	4.027100
637.546700	3.862400
637.425967	3.857800
639.149433	3.767400
648.445567	3.229000
639.318717	3.785200
637.541883	3.918300
641.873900	3.669800
630.262483	4.370700
642.403050	3.828800
641.613550	3.896000
650.185767	3.394000
642.655200	3.825200
651.303217	3.452800
644.970950	3.810800
641.165550	4.048700
653.009850	3.351200
644.564183	3.939000
647.808100	3.797000
651.122683	3.579600
644.958183	3.953700
638.013617	4.400800
640.740883	4.247400
647.910767	3.869800
651.359367	3.706900
646.546967	4.004800
642.293100	4.265900
641.897417	4.366900
648.972167	4.057900
647.156117	4.193500
649.037667	4.074400
650.291317	4.060900
645.351783	4.446000
649.640300	4.204700
647.443400	4.364000
645.875467	4.478200
660.262600	3.652400
658.082300	3.796400
659.455917	3.706600
654.362717	4.014400
664.797700	3.662900
659.811050	3.997400
656.573550	4.209800
667.662717	3.541600
665.601733	3.664500
655.600533	4.257900
659.390717	4.020400
661.888750	3.878600
659.862000	4.241300
666.642533	3.908400
657.081933	4.466700
658.264000	4.425200
656.239083	4.551600
660.131450	4.349300
661.791383	4.250700
662.812700	4.207100
658.836800	4.576700
679.496983	3.537600
673.187150	3.908000
674.275417	3.856000
672.631767	3.971200
670.104767	4.249900
665.455617	4.535200
669.496167	4.322800
673.660300	4.098500
677.137867	3.912400
684.850350	3.420800
673.789983	4.249500
666.624967	4.738600
677.874967	4.092700
671.465983	4.472700
674.937933	4.268400
675.874850	4.200200
673.899567	4.313200
671.909950	4.419200
671.019400	4.719500
687.323900	3.821000
680.839767	4.197100
687.486667	3.799000
683.307600	4.038500
674.747867	4.540600
687.279150	3.790100
683.643817	3.995200
683.868250	4.030100
690.489217	3.707200
687.114800	3.905000
680.785167	4.267000
684.373017	4.144000
694.238717	3.858400
687.967233	4.248900
689.734217	4.131400
696.368217	3.742000
688.413200	4.351100
689.123950	4.330700
697.512867	3.803800
692.753417	4.090900
687.000133	4.450200
691.487817	4.195000
687.961800	4.403300
692.984883	4.123800
688.801917	4.389400
691.073600	4.245500
687.419617	4.676500
692.223750	4.522400
689.508633	4.706400
698.776517	4.145200
695.411600	4.356500
697.716350	4.199900
697.266100	4.302500
709.236917	3.727300
709.112817	3.717700
696.894517	4.446100
705.601500	3.950900
704.199850	4.083500
705.891433	3.984300
709.585633	3.820800
704.539667	4.153000
710.118083	3.822000
709.673100	3.856100
706.521117	4.164100
701.102217	4.514500
709.134900	4.058600
713.306350	3.815600
710.927883	3.963600
712.887550	3.867800
719.553667	3.459400
716.250467	3.652300
707.062600	4.201700
708.643017	4.131400
709.641983	4.364400
707.461333	4.572000
704.237800	4.789400
715.880650	4.109300
712.490200	4.334900
717.615750	4.033400
715.217667	4.338400
709.515267	4.753600
723.548017	3.950200
719.747183	4.170900
711.189233	4.706100
727.101117	3.892000
728.773567	3.765700
717.771517	4.403200
717.906000	4.398200
725.903667	3.949600
724.033517	4.073500
717.779300	4.632500
722.601600	4.358300
731.845567	3.809500
720.813733	4.450500
719.544517	4.542700
714.599333	4.840500
716.730217	4.723600
715.160783	4.828800
728.993317	4.258600
729.942367	4.277500
729.222267	4.325800
723.106667	4.704100
721.228267	4.845400
719.203883	4.964100
732.865317	4.159600
734.065350	4.103300
741.484083	3.807900
735.333183	4.307100
730.446917	4.622800
728.568917	4.726300
741.271800	4.031000
736.348150	4.401500
737.565467	4.336600
738.792550	4.282400
741.993433	4.081800
735.423683	4.476300
744.065700	4.030400
740.396900	4.372700
739.270333	4.429800
735.495883	4.667700
730.529517	5.006500
738.754633	4.495200
737.666533	4.554300
738.394617	4.508500
735.788467	4.679800
746.887367	4.307500
734.597867	5.089600
743.969883	4.562100
741.810200	4.685900
745.786300	4.444100
743.803333	4.566600
758.652233	3.670500
752.719383	4.026600
749.145100	4.383800
744.576200	4.633100
753.227283	4.156500
743.827667	4.728100
752.056150	4.287800
752.779633	4.279500
747.696183	4.635600
752.185517	4.304500
750.740167	4.397500
749.885717	4.463500
742.302017	5.019700
749.442217	4.731100
752.700700	4.556000
752.205767	4.584700
753.968017	4.513900
751.164217	4.694500
744.177383	5.122500
747.360000	4.946300
749.976150	4.838600
756.532017	4.725700
759.544850	4.577900
762.363517	4.412800
762.045683	4.430100
754.883483	4.873800
756.825300	4.764200
753.971267	4.928200
754.432283	4.917600
761.970017	4.549900
762.778283	4.533900
757.685900	4.856600
767.955367	4.269100
763.309867	4.627300
763.314633	4.654800
772.430717	4.134700
764.530350	4.613300
769.499200	4.337300
767.877350	4.449500
772.628350	4.211600
778.400717	3.911800
774.434017	4.157800
771.249900	4.363400
771.789450	4.352300
767.363383	4.633500
752.687883	5.547300
773.859733	4.320300
770.923183	4.557600
771.495067	4.798600
770.393317	4.873300
777.803450	4.456700
772.996750	4.757300
778.061717	4.573300
765.951900	5.331200
777.177000	4.717400
776.840017	4.730800
782.039333	4.418100
773.056517	4.964800
777.120217	4.891900
772.276883	5.214600
773.980783	5.130300
776.672183	4.985700
785.741633	4.441500
793.493800	3.998600
787.577233	4.332300
780.612700	4.756700
781.532550	4.876100
788.608550	4.585400
789.879467	4.506700
786.133350	4.730600
779.309067	5.123800
795.754250	4.175300
786.943533	4.695300
791.017517	4.451200
792.135483	4.434000
798.547617	4.258600
787.432800	4.955900
785.726883	5.081700
798.090883	4.351500
786.683317	5.016400
790.601183	4.798200
791.024767	4.781800
793.851300	4.605500
798.211083	4.602300
786.157250	5.359400
787.323867	5.330200
791.645917	5.089900
797.290000	4.739900
795.239383	4.890000
806.921133	4.208100
800.174950	4.612100
803.283550	4.413200
801.784850	4.496900
805.808750	4.459100
798.304200	5.044100
803.821250	4.700900
802.853483	4.779300
802.186000	4.823600
803.438483	4.770000
804.445550	4.717700
797.630800	5.123900
806.902350	4.600400
802.198133	5.007600
813.366250	4.373300
814.373350	4.316900
804.897167	4.883500
805.539117	4.931800
808.736917	4.764100
805.033100	5.015300
806.243067	4.993000
812.110383	4.686300
807.372367	4.975000
805.633567	5.268100
818.959617	4.514500
820.394433	4.440300
820.373033	4.441500
821.643283	4.380300
814.304350	4.807100
826.479817	4.056700
818.625450	4.535900
824.696017	4.381900
828.368617	4.278400
810.425483	5.384400
817.838733	4.950300
818.447067	4.931500
816.924833	5.050800
816.034150	5.114600
816.280433	5.125800
811.974717	5.534800
829.958717	4.625800
825.804967	4.896400
821.125350	5.196500
827.066300	4.854200
838.394400	4.308500
828.974100	4.884500
831.347850	4.731800
825.927867	5.086600
820.614450	5.520200
820.155833	5.586900
830.985033	4.937400
824.000450	5.353400
827.383700	5.158400
826.130983	5.233500
818.993783	5.671500
821.808200	5.499500
821.513200	5.544500
822.838967	5.481400
835.043183	5.004000
831.166450	5.329100
842.306967	4.682800
839.491733	4.851900
842.468950	4.697600
840.592083	4.815000
841.708567	4.733200
840.405783	4.810200
831.957483	5.387400
835.814267	5.263000
840.359750	5.026700
832.421383	5.503200
840.304883	5.031600
842.630767	4.892800
847.199500	4.657400
850.467333	4.710600
849.859433	4.757700
850.014650	4.738100
843.585767	5.127700
844.067533	5.122500
843.617100	5.150300
843.469383	5.177100
844.647683	5.116500
847.150550	4.954100
853.588883	4.562100
855.364200	4.658300
855.081367	4.834300
856.686950	4.764200
850.267550	5.162900
853.626517	4.951000
854.419600	4.925600
855.276867	4.855900
847.201667	5.325100
852.851450	4.994300
855.136017	4.860100
857.256650	5.055200
857.400983	5.091600
858.502683	5.046300
853.878133	5.318100
849.611617	5.616400
860.854767	5.039800
862.887117	4.928500
854.760367	5.389300
859.862900	5.129300
858.534017	5.335600
865.293250	4.963400
856.105433	5.558700
862.100700	5.186300
866.988483	4.908300
864.273017	5.053600
867.000133	5.049900
863.763633	5.277600
866.825717	5.151100
868.459383	5.064300
872.076167	4.842700
879.110633	4.421700
865.922683	5.346300
866.574300	5.317400
869.270600	5.154800
876.249500	4.751600
875.782417	4.822300
869.684683	5.194500
868.715767	5.258800
866.715000	5.407400
882.027633	4.494000
878.829850	4.709000
870.519633	5.265000
868.073483	5.504400
873.623850	5.216000
882.818600	4.717400
881.069333	4.837500
872.270983	5.372100
881.190983	4.875300
870.911883	5.624700
873.879150	5.502500
873.471033	5.596800
880.826800	5.172800
880.760067	5.188000
871.882417	5.725600
880.229800	5.388500
884.054433	5.166600
888.356267	4.947100
886.770800	5.023700
879.845983	5.504700
884.107983	5.284800
874.097483	5.933700
881.388283	5.489100
887.143367	5.166400
887.768800	5.129300
894.983767	4.811500
891.823983	5.048400
888.951550	5.296400
903.622700	4.426400
898.195800	4.742600
899.778967	4.641700
890.265217	5.276200
896.822017	4.977700
902.047117	4.702900
897.904400	4.964000
897.561700	4.981100
891.724017	5.341300
895.410067	5.118100
893.380083	5.425800
893.722967	5.425600
892.543200	5.488100
896.644733	5.253600
887.833183	5.906700
893.266917	5.645200
896.892917	5.493100
899.400617	5.353000
900.153650	5.338400
909.738883	4.757400
907.559150	5.011700
898.382783	5.588100
905.224500	5.236100
903.190250	5.370500
899.745583	5.578200
904.881083	5.281800
886.737850	6.544700
899.451183	5.817000
904.070483	5.571600
906.615283	5.417100
913.861850	5.014700
908.156583	5.408100
907.401633	5.457300
913.944483	5.088900
906.699067	5.542600
905.992767	5.599000
910.150750	5.348900
916.834983	5.082300
910.541200	5.475500
906.393617	5.789500
914.271717	5.310700
909.601300	5.601200
899.247967	6.227800
912.214517	5.597200
916.892200	5.358800
913.749317	5.565700
919.513000	5.221400
909.183100	5.936300
913.594433	5.735400
929.332817	4.845400
914.771000	5.734100
913.171983	5.841900
923.030333	5.288400
920.781483	5.484300
922.702317	5.453200
932.634000	4.892600
921.596117	5.572300
918.814800	5.769200
931.589867	5.001100
922.203883	5.588400
926.169617	5.410300
921.242833	5.711100
926.143883	5.425800
919.759283	5.846100
925.300567	5.638900
931.286267	5.294800
928.762067	5.493400
934.574333	5.159400
927.772200	5.567300
922.654233	5.872500
926.718517	5.774500
939.521500	5.030300
924.818183	5.985300
930.927183	5.601900
927.106817	5.844400
928.632933	5.751900
939.884583	5.239800
934.984783	5.547000
934.574883	5.590200
928.666783	5.929800
935.952700	5.558000
941.139133	5.262600
936.989183	5.558700
947.510533	4.948500
940.414917	5.383000
941.660233	5.328600
940.437933	5.537700
942.356450	5.450300
936.563400	5.804900
942.889517	5.428600
944.288467	5.362600
942.951500	5.591000
939.169967	5.841100
944.816800	5.545700
943.282217	5.652400
943.182333	5.702100
940.680083	5.861100
944.702217	5.647900
948.884683	5.408700
956.975150	5.084000
947.849533	5.619900
955.944267	5.155900
950.630100	5.458400
953.605017	5.382100
953.305133	5.450100
939.099633	6.380400
952.411783	5.583900
949.096517	5.789500
947.723183	5.870100
952.257517	5.654800
962.944733	5.146500
950.046417	5.907700
957.132917	5.539000
955.778217	5.609800
962.808600	5.206100
962.829917	5.206600
959.646450	5.383400
956.083183	5.633700
962.894767	5.383900
956.289217	5.794300
969.249233	5.042100
952.820583	6.033000
952.826383	6.106800
961.092833	5.630700
957.379317	5.845000
959.704917	5.716900
959.338767	5.918800
955.018950	6.197300
959.041583	5.980800
967.671950	5.462900
954.759883	6.400500
956.013783	6.320100
962.225317	6.001900
966.000017	5.779000
975.566167	5.291200
967.326000	5.784800
965.975650	5.900000
975.197017	5.366200
976.792633	5.313900
975.426233	5.417400
978.801967	5.209300
976.027633	5.392200
984.509217	4.945000
978.548117	5.381800
974.946683	5.591700
974.116100	5.657600
981.965283	5.223000
986.159583	5.092800
973.206400	5.876900
981.424667	5.416600
980.368000	5.493500
983.742200	5.277800
980.643467	5.461900
978.127333	5.688600
978.388450	5.702600
978.822067	5.710000
981.954950	5.543000
974.359083	6.026100
982.935200	5.524100
982.913700	5.682500
979.277733	5.958000
985.850967	5.574400
988.942350	5.425400
991.528167	5.354500
989.897217	5.542600
987.556217	5.695900
982.820083	5.997300
982.326267	6.047800
976.547233	6.414300
982.958033	6.054900
990.378617	5.770900
979.286467	6.440500
987.489217	5.980000
994.528700	5.567600
997.694083	5.548200
1000.911800	5.347100
998.524483	5.535900
998.132883	5.562900
1000.948850	5.391800
996.893400	5.620700
996.828867	5.706100
993.343767	5.935600
1005.790450	5.302400
997.630117	5.804500
993.124217	6.083200
997.630917	5.836300
1000.967250	5.775500
999.062367	5.901400
995.895783	6.127800
995.655917	6.169600
996.410550	6.161900
996.216467	6.174400
992.123933	6.481800
999.724617	6.166000
1011.939650	5.448500
1010.585533	5.527200
1008.857567	5.661700
1009.397050	5.717900
1010.333917	5.676700
995.330167	6.568000
1001.116117	6.235900
1001.942867	6.347200
1003.824367	6.255400
1002.394800	6.424700
1003.498900	6.389000
1014.782717	5.779000
1012.449367	5.910100
1014.766783	5.755200
1004.231733	6.373800
1015.689383	5.837700
1014.211717	5.931400
1017.163317	5.779000
1018.574883	5.679000
1016.207533	5.874300
1017.804383	5.869500
1013.938800	6.142400
1015.446917	6.076000
1015.001300	6.127400
1011.758583	6.335700
1021.784767	5.772400
1016.289517	6.134500
1025.985767	5.543500
1021.882183	5.846100
1018.943250	6.020900
1017.609617	6.115900
1019.413633	6.003300
1023.142250	5.958800
1018.919267	6.226300
1008.022250	6.872600
1015.152117	6.472900
1021.477000	6.164900
1018.500350	6.368900
1029.648650	5.763200
1022.321867	6.195700
1022.300983	6.206400
1017.195650	6.533000
1033.014250	5.678300
1023.696717	6.326800
1026.184450	6.243200
1030.492300	6.009800
1027.374850	6.190700
1028.814067	6.118600
1035.698233	5.740200
1041.250450	5.459000
1035.925617	5.802100
1038.321183	5.709600
1036.703867	5.811100
1039.080350	5.685200
1034.302400	5.982800
1035.914983	6.036000
1038.696483	5.899200
1035.454217	6.083200
1034.284000	6.167900
1033.375017	6.360100
1038.792650	6.076400
1037.883833	6.192300
1044.080467	5.835100
1034.152783	6.467100
1043.472017	5.887600
1036.705100	6.388400
1042.435467	6.133300
1043.844117	6.092800
1044.115317	6.122200
1040.853500	6.321500
1045.514300	6.043700
1046.991850	5.988800
1048.762067	5.989900
1056.995333	5.503200
1048.601617	6.043900
1045.745317	6.214000
1047.801283	6.093000
1053.773700	5.762000
1046.490083	6.349800
1047.500750	6.304100
1052.994933	6.000300
1042.212983	6.656100
1040.679767	6.885700
1057.718783	5.907000
1071.725717	5.121100
1057.282083	5.981400
1062.119633	5.687700
1052.694350	6.251600
1052.314217	6.349600
1056.572133	6.106800
1061.700233	5.819400
1057.787517	6.041200
1048.815533	6.698400
1054.368433	6.421200
1070.564033	5.495700
1060.573000	6.099500
1061.665800	6.049100
1058.637417	6.246100
1061.764667	6.147700
1060.840017	6.298900
1052.978933	6.799500
1061.376300	6.333500
1069.469900	5.850200
1060.567050	6.410300
1057.198117	6.652900
1066.985800	6.189800
1072.945150	5.843900
1070.130767	6.004000
1063.223467	6.439000
1068.298350	6.260900
1069.589667	6.196300
1072.522267	6.080200
1072.479317	6.075700
1066.667600	6.414500
1071.744900	6.126500
1072.511133	6.177600
1072.942617	6.164500
1062.422167	6.833200
1073.988750	6.130400
1066.151117	6.688300
1068.436150	6.610700
1072.001983	6.471300
1072.877717	6.441700
1069.398617	6.660100
1071.181517	6.563800
1080.941283	6.068100
1079.361733	6.199200
1076.865233	6.471300
1080.882950	6.238100
1078.393800	6.419600
1080.519933	6.304200
1080.404717	6.348400
1088.314983	6.003900
1079.813600	6.565700
1085.846817	6.234700
1088.766717	6.061300
1087.889283	6.102900
1083.474000	6.352100
1085.982800	6.303500
1075.939950	6.909800
1080.695133	6.656100
1080.009367	6.723100
1082.557717	6.727300
1093.297433	6.089400
1083.979283	6.653100
1091.325033	6.222600
1097.982550	5.982500
1095.342483	6.156600
1096.008450	6.158900
1093.534483	6.305400
1090.111650	6.586700
1091.347283	6.504600
1090.044133	6.603900
1097.595083	6.128400
1089.771217	6.681100
1100.228400	6.065300
1094.597650	6.409700
1100.794150	6.070700
1100.717550	6.152900
1098.683050	6.371300
1097.336033	6.475800
1097.818517	6.496000
1097.065283	6.540300
1101.531150	6.282500
1102.214100	6.248900
1098.656433	6.536700
1097.411017	6.649600
1111.442983	5.841900
1106.362900	6.165500
1108.550233	6.026100
1092.349383	7.007100
1108.543833	6.219600
1103.689683	6.510900
1094.943250	7.032500
1106.014033	6.405600
1108.515317	6.391600
1114.327383	6.086700
1106.749300	6.607700
1114.558867	6.142900
1109.073333	6.471300
1120.091317	5.813500
1112.905983	6.323700
1120.438500	5.936300
1113.889283	6.354300
1116.138917	6.256300
1117.292933	6.212100
1120.829417	6.006100
1118.790883	6.158700
1116.592750	6.424100
1114.912100	6.528500
1126.881217	5.822800
1119.548950	6.261500
1112.672733	6.838500
1117.778683	6.577800
1123.235400	6.314000
1127.642317	6.046900
1118.872583	6.604200
1125.530333	6.209100
1123.924500	6.422000
1130.249567	6.091300
1134.764733	5.875500
1129.404083	6.198600
1129.028683	6.237900
1132.724317	6.017800
1123.296667	6.613300
1126.313150	6.465800
1124.254767	6.621400
1127.647850	6.463700
1130.584600	6.302000
1122.263050	6.802400
1127.712067	6.508900
1134.707283	6.144000
1127.818000	6.571700
1132.316100	6.327500
1126.486267	6.681100
1132.847533	6.436800
1132.174150	6.515000
1129.602233	6.722100
1130.920517	6.664600
1135.195683	6.452400
1130.790333	6.705600
1142.992583	6.113400
1146.009800	5.967800
1143.703533	6.156600
1133.344417	6.767800
1138.953567	6.469900
1140.070333	6.424800
1135.586117	6.833200
1137.294583	6.769500
1146.501700	6.201200
1141.570967	6.501400
1142.321917	6.490900
1144.453667	6.397900
1137.870167	6.823900
1137.557433	6.881100
1145.978350	6.414800
1148.886167	6.256300
1141.239433	6.801000
1141.056867	6.928300
1139.982983	7.028100
1149.459533	6.523800
1148.743067	6.568000
1145.813550	6.760100
1147.976633	6.622500
1151.909450	6.543800
1154.370967	6.407500
1162.807800	5.907500
1155.906050	6.293000
1159.703183	6.194400
1161.419733	6.122400
1158.899000	6.317900
1158.467533	6.350700
1164.004733	6.016800
1153.424467	6.658900
1155.402400	6.591200
1157.315650	6.527000
1153.740033	6.775500
1152.834283	6.879300
1156.085200	6.714800
1155.055600	6.791300
1161.490833	6.477300
1160.890283	6.602100
1160.914167	6.632200
1158.793600	6.803300
1158.751817	6.821500
1168.629350	6.234500
1166.398467	6.360100
1169.854450	6.346700
1166.626767	6.516400
1168.623167	6.408400
1168.867433	6.399900
1166.912117	6.649600
1171.667483	6.428100
1173.851733	6.323100
1172.214083	6.407700
1164.168550	6.883100
1168.994400	6.596000
1175.100050	6.249500
1170.389200	6.519200
1166.680817	6.964300
1174.008867	6.538000
1171.356050	6.717800
1168.651950	6.893000
1166.657033	7.090200
1176.773750	6.630500
1183.369450	6.243800
1180.701683	6.395100
1176.367333	6.684000
1177.456317	6.764500
1176.730533	6.825600
1182.412433	6.522900
1174.595967	7.005400
1178.264933	6.828000
1179.698550	6.728300
1181.238867	6.762400
1186.160250	6.519200
1186.747250	6.559400
1187.242333	6.503400
1188.042617	6.465400
1189.604733	6.372000
1184.401133	6.828000
1192.306583	6.390900
1180.005100	7.114700
1187.088167	6.678700
1188.880850	6.648800
1191.275100	6.572900
1185.801933	6.918900
1190.499583	6.683100
1195.421767	6.408400
1195.705550	6.388100
1183.719150	7.124600
1191.844083	6.786600
1200.126517	6.327700
1190.658567	6.925000
1191.650717	6.896200
1196.496433	6.623700
1198.856200	6.493100
1195.084483	6.769800
1190.489700	7.034000
1186.428717	7.319800
1193.440367	6.925600
1193.947400	7.010600
1198.074050	6.818300
1198.907967	6.843700
1203.653200	6.572900
1212.849600	6.038600
1201.898200	6.684200
1209.152767	6.379300
1206.915667	6.558700
1211.034667	6.387400
1208.362283	6.552000
1208.794300	6.555200
1201.659300	6.960200
1200.983500	7.034000
1207.252133	6.796500
1208.664017	6.720100
1210.424100	6.659300
1206.818033	6.892200
1200.694950	7.251500
1212.591150	6.555200
1206.759417	7.063000
1221.430200	6.176900
1218.805483	6.340200
1206.715783	7.077300
1205.301317	7.309900
1215.230267	6.727600
1215.978400	6.742700
1208.924117	7.191100
1205.867533	7.401000
1214.129567	6.916300
1206.982533	7.485600
1215.361817	7.047700
1211.938533	7.326300
1213.077333	7.236600
1220.147917	6.822700
1213.196583	7.241400
1231.490367	6.277300
1226.861733	6.566400
1227.160683	6.523800
1225.250883	6.683700
1223.313967	6.889300
1220.892650	7.093700
1217.626067	7.316200
1221.842983	7.107000
1224.023100	6.968300
1226.656550	6.792500
1226.231017	6.845500
1228.687150	6.841700
1237.951800	6.305000
1233.712483	6.564000
1230.893100	6.738800
1225.612467	7.063300
1234.464983	6.540300
1233.184300	6.730100
1226.842850	7.127300
1232.800617	6.772000
1234.788617	6.652300
1236.298517	6.680500
1242.291717	6.364000
1234.127933	6.909300
1236.287867	6.779200
1242.499450	6.413600
1242.064183	6.448500
1235.271650	6.977300
1243.474150	6.532700
1226.471867	7.593700
1233.832333	7.163700
1241.645217	6.733600
1244.402767	6.570700
1245.170450	6.578600
1248.113483	6.481800
1244.279750	6.708800
1245.384083	6.635700
1247.152850	6.599600
1244.808133	6.818100
1248.084150	6.647000
1247.543983	6.745800
1252.879083	6.432600
1244.406500	6.947600
1245.637000	6.925400
1244.069083	7.153800
1253.068133	6.634800
1252.855083	6.704700
1252.813200	6.732800
1251.471067	6.804400
1250.321267	6.879700
1259.085250	6.489500
1257.742200	6.572000
1255.208500	6.730100
1259.109900	6.491000
1252.082850	6.993200
1251.682650	7.063700
1259.565333	6.644400
1251.441100	7.136300
1243.105633	7.698600
1248.354567	7.376500
1252.345433	7.243500
1261.401183	6.786000
1255.173017	7.165600
1250.546383	7.495800
1257.654217	7.098100
1250.491183	7.535700
1261.794350	6.888500
1262.065433	7.018500
1264.026667	6.904900
1274.606383	6.258900
1273.363633	6.377700
1263.191417	7.099600
1270.291333	6.675900
1256.185217	7.568800
1261.166133	7.280400
1264.673683	7.100700
1270.094250	6.794900
1265.372050	7.246100
1273.414983	6.774900
1265.821100	7.265600
1266.687283	7.224600
1270.000250	7.131500
1276.285700	6.798800
1274.642817	6.964300
1273.105133	7.062000
1270.403267	7.210900
1270.192983	7.250700
1279.675667	6.816700
1270.908033	7.393200
1269.697000	7.497200
1270.858267	7.486900
1272.255250	7.429700
1282.634050	6.806300
1272.734017	7.395400
1280.344783	7.069800
1281.406117	7.016800
1286.516333	6.775500
1279.867450	7.169600
1284.011667	6.927100
1282.887917	6.978700
1290.188950	6.730100
1280.756150	7.290200
1284.505383	7.083900
1285.480900	7.043900
1278.487267	7.601200
1283.017283	7.343400
1287.300333	7.149000
1295.561467	6.668200
1304.302833	6.129300
1296.065717	6.604600
1292.003217	6.940600
1292.354350	6.979700
1301.994333	6.439800
1304.242650	6.293000
1284.139567	7.497700
1289.252117	7.214800
1294.711900	6.958400
1298.519250	6.791900
1288.999050	7.365200
1292.132483	7.200000
1286.972717	7.552600
1290.996100	7.444400
1287.852767	7.651900
1287.722783	7.710000
1290.646533	7.537800
1291.115383	7.505100
1301.787383	6.890100
1297.816467	7.200100
1295.333917	7.366000
1289.705333	7.728300
1300.360367	7.125700
1288.517617	7.878100
1300.533617	7.168900
1298.946300	7.274600
1306.594550	6.798500
1286.539117	8.224300
1299.511450	7.488800
1306.613617	7.115500
1310.198133	6.909900
1305.927717	7.250200
1306.725567	7.189300
1303.060450	7.389200
1304.668650	7.318400
1299.447033	7.761600
1299.071783	7.858500
1306.224633	7.478400
1312.901600	7.088900
1308.436150	7.353200
1314.230383	7.013700
1312.685233	7.150500
1302.814467	7.879600
1311.666333	7.350900
1313.943683	7.225800
1310.518233	7.446900
1313.431500	7.422200
1317.462100	7.197200
1314.877267	7.375900
1323.468150	6.883400
1311.676183	7.568400
1312.251800	7.562300
1319.130500	7.156700
1311.627400	7.625900
1327.031717	6.914800
1312.570650	7.804400
1315.507083	7.701300
1325.173900	7.123100
1312.103350	7.972700
1320.705183	7.495800
1311.007283	8.080800
1314.718283	7.863000
1318.108750	7.793900
1323.940250	7.509200
1327.331850	7.336700
1331.734267	7.082800
1323.471733	7.588500
1332.630067	7.041700
1333.453000	7.070600
1331.537617	7.243000
1324.091783	7.731900
1319.466233	8.057400
1324.281617	7.787800
1321.277767	7.970800
1320.607183	8.073300
1327.968833	7.698600
1326.262717	7.823800
1331.865200	7.509800
1322.734483	8.034300
1325.659000	8.016500
1335.527833	7.444500
1331.413133	7.698600
1329.473500	7.835000
1330.841783	7.871100
1339.942000	7.346900
1336.241667	7.686400
1339.091867	7.516000
1347.026583	7.054800
1341.573000	7.372700
1337.068850	7.743200
1346.738400	7.212800
1339.705500	7.693400
1335.117067	7.936600
1349.521033	7.094400
1342.230883	7.528800
1336.349817	7.932100
1340.405733	7.722300
1341.238200	7.702100
1342.070800	7.694600
1348.659017	7.325200
1345.762233	7.503000
1346.530450	7.515500
1349.672217	7.432900
1337.277533	8.189400
1351.955150	7.328000
1348.779533	7.584000
1349.342633	7.653000
1347.239233	7.799100
1344.411517	7.999600
1347.399817	7.828600
1355.817567	7.452100
1355.848483	7.489500
1358.715100	7.399700
1349.282650	7.959500
1356.861500	7.566500
1366.221333	7.028100
1357.318000	7.552400
1356.688450	7.585700
1355.552533	7.846800
1357.341633	7.751100
1356.010950	7.860500
1357.523517	7.772800
1369.408533	7.183800
1361.573300	7.712600
1366.606150	7.471400
1363.304400	7.684700
1363.538900	7.702100
1361.111567	7.862800
1370.184850	7.431200
1366.794183	7.701600
1369.606283	7.538400
1366.757533	7.740600
1370.027383	7.538700
1369.439900	7.581200
1373.100217	7.373500
1375.394650	7.356800
1364.095400	8.023100
1377.164200	7.256300
1372.102100	7.577600
1371.832400	7.735100
1376.927383	7.449300
1374.702233	7.632600
1364.985700	8.230100
1381.194017	7.306300
1375.957800	7.615700
1375.433517	7.775800
1370.610700	8.107100
1376.400917	7.817500
1374.159233	7.964100
1380.809933	7.568400
1387.418950	7.190600
1384.286133	7.434300
1385.834133	7.356600
1382.601033	7.548300
1383.250967	7.505800
1382.292100	7.675700
1384.126750	7.637600
1390.447817	7.331500
1382.081167	7.819900
1372.153683	8.444700
1379.390617	8.037400
1382.582267	7.885000
1389.669833	7.589700
1387.931133	7.733400
1387.224933	7.795500
1380.889267	8.182900
1381.746683	8.219400
1381.706867	8.256100
1390.145233	7.853400
1392.798450	7.682300
1385.311500	8.127200
1374.992033	8.760600
1384.885883	8.321100
1392.108050	7.942400
1395.418317	7.829800
1398.418117	7.636900
1401.669817	7.460500
1394.685933	7.860300
1399.154583	7.761600
1396.427817	7.964200
1394.864033	8.065800
1399.363000	7.802300
1403.585817	7.677700
1399.994000	7.951100
1398.578967	8.071000
1406.864867	7.601800
1409.797600	7.433600
1411.176717	7.363600
1411.010217	7.384900
1402.945867	7.972900
1410.317483	7.554600
1406.204167	7.807600
1404.951650	7.909400
1400.902067	8.317600
1406.679000	7.979600
1407.883633	7.956300
1401.551400	8.349800
1405.903450	8.128700
1410.238200	7.889600
1418.082533	7.410900
1414.460617	7.641700
1414.698833	7.730700
1417.257333	7.606500
1418.768983	7.579800
1417.889350	7.613000
1419.228850	7.535300
1421.573333	7.385100
1408.429017	8.270800
1417.148017	7.834000
1417.266050	7.835900
1414.966867	7.962100
1416.566517	7.960000
1417.171867	8.037100
1423.037617	7.688200
1427.504017	7.430500
1422.934417	7.718800
1424.372100	7.649300
1419.725067	7.927900
1419.902317	7.917400
1422.188533	7.782600
1420.633200	7.886900
1414.562817	8.265100
1415.661100	8.193800
1425.188050	7.648100
1424.841650	7.664600
1424.074833	7.739700
1425.661100	7.826600
1423.817400	7.960100
1423.561017	7.990000
1426.391100	7.814000
1430.600400	8.049500
1430.580833	8.086800
1432.837033	7.990500
1438.479467	7.648600
1441.983633	7.607700
1444.530367	7.474000
1436.597200	7.948700
1437.431933	7.867800
1438.665967	7.888300
1434.328133	8.207700
1434.076750	8.291300
1433.093017	8.360800
1444.447950	7.694600
1442.767317	7.799800
1445.897817	7.693000
1448.127833	7.641300
1439.413667	8.180500
1440.629467	8.141500
1444.949800	7.884800
1444.823183	7.975200
1444.227017	8.024500
1449.997933	7.727700
1444.613183	8.082000
1443.907250	8.196200
1450.598467	7.786300
1443.732267	8.229700
1450.666867	7.833100
1452.192700	7.887500
1448.675450	8.117600
1461.110750	7.368200
1456.498383	7.678800
1455.249917	7.758100
1451.877350	8.018000
1452.166667	8.041300
1459.673383	7.601400
1447.073767	8.371600
1454.173783	7.978200
1449.318533	8.300100
1448.121733	8.441700
1451.353867	8.300500
1458.950817	7.910500
1459.014233	7.943700
1458.548100	7.986800
1460.093933	7.931700
1459.255900	8.149700
1461.241733	8.063400
1467.125883	7.746300
1458.232117	8.262100
1457.518983	8.476800
1465.349850	8.056700
1457.894583	8.572800
1468.382900	7.967600
1459.774200	8.464400
1460.818067	8.441500
1465.692500	8.297900
1472.873067	7.907200
1478.079750	7.682900
1469.501933	8.193000
1467.770850	8.299400
1474.814483	7.867200
1478.577200	7.866500
1478.688550	7.814000
1469.415250	8.372000
1467.208733	8.517600
1472.153467	8.301400
1477.176900	8.149700
1473.713800	8.372300
1472.964433	8.476800
1480.483850	8.025200
1483.759483	7.846800
1482.235717	7.937500
1482.685250	8.068100
1474.947283	8.533800
1475.321433	8.534700
1476.530150	8.474000
1485.019183	8.106000
1493.943467	7.593700
1480.898383	8.425500
1483.344600	8.297300
1484.078767	8.232100
1481.051767	8.444800
1485.595917	8.287600
1489.346083	8.107800
1488.482900	8.212700
1499.994967	7.533400
1488.612050	8.194700
1488.876000	8.185100
1490.707867	8.137000
1495.655383	7.949100
1503.742033	7.467000
1486.554117	8.522500
1493.082117	8.143000
1497.652033	7.863900
1499.281467	7.796800
1492.641183	8.304600
1495.243050	8.162600
1498.800733	7.970400
1499.358683	7.953600
1504.460683	7.665000
1492.772883	8.377500
1489.126867	8.621800
1484.137217	8.937100
1496.748933	8.257200
1494.944917	8.399200
1499.846817	8.188600
1496.721817	8.418100
1509.722550	7.672400
1505.396933	7.965900
1501.262967	8.263000
1496.648283	8.582400
1494.030467	8.884000
1505.888900	8.220500
1503.527283	8.367000
1508.103900	8.096000
1504.702017	8.390200
1504.599383	8.489700
1508.977217	8.256400
1508.470900	8.363300
1508.885683	8.376000
1510.190300	8.301800
1511.976100	8.234600
1513.946300	8.279900
1511.654000	8.420000
1512.442550	8.433500
1508.605550	8.661800
1511.889467	8.490100
1511.061267	8.548300
1516.593017	8.224900
1511.588533	8.512200
1511.867950	8.513900
1512.285317	8.503600
1515.979333	8.363700
1516.241683	8.398200
1518.207000	8.364800
1515.383367	8.554900
1516.511083	8.489400
1513.442450	8.713100
1516.263883	8.726700
1521.494783	8.416200
1527.760183	8.065800
1533.025700	7.753100
1526.538383	8.176800
1529.593883	8.113800
1522.308667	8.537800
1526.537167	8.350900
1525.563433	8.418000
1530.900867	8.132200
1523.863017	8.569300
1524.481267	8.540500
1530.811217	8.149000
1529.626450	8.404100
1528.030750	8.521100
1523.645200	8.809100
1532.641383	8.284800
1532.336183	8.430000
1528.971267	8.676700
1530.446067	8.692600
1532.503500	8.570600
1526.342750	8.910200
1535.706383	8.401500
1531.855983	8.734200
1528.647333	9.031500
1536.084567	8.621800
1544.228000	8.149100
1543.472367	8.223100
1535.344833	8.722200
1537.050933	8.648400
1534.331100	8.954000
1542.335933	8.489100
1539.071600	8.738900
1545.855883	8.338500
1544.355650	8.408300
1544.829017	8.396200
1544.729867	8.540200
1546.530367	8.459800
1549.147967	8.305000
1544.985800	8.556200
1546.061333	8.630400
1548.967750	8.518400
1546.860833	8.737200
1548.158133	8.661300
1555.040850	8.252900
1549.253333	8.577000
1542.357317	9.042400
1554.591733	8.439900
1554.424050	8.460200
1562.945650	7.986800
1559.556750	8.181200
1554.778167	8.472400
1555.853783	8.445900
1562.179500	8.185700
1554.906967	8.626000
1549.284200	8.982500
1548.704233	9.020400
1556.117350	8.647700
1563.527533	8.221800
1558.195000	8.599700
1551.549367	9.012100
1552.319033	8.979600
1566.408150	8.146700
1557.823700	8.813900
1563.524450	8.519900
1563.033767	8.620600
1560.037183	8.820300
1563.524200	8.639300
1566.608600	8.461700
1564.530800	8.758100
1575.235817	8.114800
1568.170933	8.560800
1569.137233	8.499000
1569.900267	8.520400
1568.266000	8.617400
1570.813733	8.511600
1564.152067	8.887300
1577.499467	8.296600
1572.453350	8.595200
1575.626200	8.432300
1569.330383	8.844000
1567.034150	9.006200
1570.972000	8.840600
1577.122650	8.505500
1569.024200	9.001400
1572.031983	8.863800
1579.830917	8.575000
1576.488150	8.789600
1586.937267	8.155000
1574.957067	8.865700
1582.801867	8.478400
1575.958817	8.894500
1582.314717	8.586100
1579.828200	8.734400
1580.688233	8.691000
1588.300067	8.244700
1585.599500	8.508500
1586.060467	8.559400
1572.346317	9.413800
1578.592483	9.074100
1585.689983	8.675700
1582.960183	8.849100
1586.886417	8.686300
1583.000267	9.032800
1587.246200	8.788100
1592.211183	8.507700
1589.910350	8.688500
1590.401783	8.724600
1586.721800	8.959400
1589.595133	8.861400
1586.598267	9.039400
1588.899383	8.949600
1591.237250	8.832500
1590.723050	9.042500
1592.545483	8.946300
1590.728717	9.097300
1591.793067	9.027700
1595.668800	8.878400
1587.755917	9.388300
1603.305150	8.513900
1597.954167	8.837500
1598.861717	8.803600
1599.507717	8.770600
1592.187250	9.330200
1606.847400	8.495300
1604.600167	8.600800
1604.396600	8.636000
1612.021367	8.178400
1601.102350	8.821700
1593.603867	9.310300
1606.586767	8.772700
1609.057450	8.657300
1603.790567	9.048400
1608.282400	8.772800
1604.488633	9.011700
1608.733167	8.749300
1610.130083	8.754300
1611.709450	8.667200
1616.702133	8.359500
1604.036417	9.159400
1613.262767	8.702800
1615.507350	8.607800
1603.546333	9.345600
1609.545350	9.003200
1609.512383	9.132300
1618.900100	8.577200
1614.782617	8.912200
1612.903683	9.055800
1609.994967	9.311500
1609.345233	9.381600
1610.250633	9.355200
1614.483950	9.118700
1620.733817	8.905000
1621.391333	8.877000
1620.994383	8.910600
1618.651917	9.074200
1622.131533	8.903400
1625.157233	8.866500
1621.689367	9.087400
1624.000917	9.009100
1625.637433	8.934900
1621.701667	9.157600
1621.942800	9.166400
1624.334217	9.187000
1633.651933	8.660700
1636.557367	8.509900
1631.591567	8.827000
1629.240967	8.980600
1631.333817	8.871100
1629.800267	9.048400
1636.504933	8.663700
1625.581500	9.349100
1635.421950	8.756600
1638.755633	8.705700
1635.862817	8.926000
1649.624633	8.175900
1637.826617	8.888200
1641.964700	8.637500
1634.318600	9.118700
1635.796350	9.161300
1637.040450	9.139700
1639.998967	9.067600
1645.968800	8.680100
1645.022717	8.731900
1644.386083	8.771400
1645.363717	8.783500
1654.277883	8.320200
1652.332850	8.435000
1643.941567	8.947600
1643.712950	8.993000
1645.531183	8.939100
1639.657483	9.322200
1642.979533	9.147900
1647.653333	8.898000
1640.648850	9.350300
1652.259933	8.653200
1653.888350	8.626700
1653.325233	8.690400
1646.440500	9.164900
1651.018367	8.907400
1647.173700	9.159200
1645.787200	9.259400
1652.478183	9.049200
1656.208767	8.863000
1646.890867	9.452200
1655.178033	8.967900
1655.971233	9.042900
1659.207417	8.901700
1661.365200	8.870900
1657.918567	9.057400
1641.482000	10.090400
1655.726500	9.233000
1653.713050	9.458300
1654.884200	9.479900
1660.986283	9.154500
1667.785833	8.763000
1664.573583	8.960700
1661.874717	9.110200
1659.262750	9.286400
1664.993633	9.111900
1671.766917	8.704900
1659.940133	9.399900
1661.929117	9.315700
1661.573567	9.480700
1661.614867	9.498400
1664.023083	9.432600
1658.238150	9.773900
1662.153900	9.581900
1665.045333	9.426900
1670.983517	9.224200
1669.352050	9.334400
1679.480350	8.747600
1683.325000	8.498900
1673.844250	9.191000
1670.441183	9.445200
1675.363667	9.247000
1675.246900	9.234500
1682.684883	8.807100
1673.247483	9.377700
1674.364167	9.350200
1680.488417	9.013600
1675.556217	9.340300
1678.893233	9.194400
1666.750700	9.931400
1679.693650	9.193100
1680.282450	9.200300
1679.896400	9.359300
1681.751500	9.284900
1681.215667	9.368500
1686.475233	9.059100
1682.922117	9.288400
1683.419083	9.285900
1688.570000	9.004100
1682.791617	9.362200
1689.292050	9.185600
1691.726133	9.056400
1683.359033	9.618900
1687.296883	9.409200
1687.269033	9.455100
1686.797783	9.518700
1687.444517	9.504700
1686.133950	9.560300
1683.666900	9.723200
1699.350467	8.811100
1693.915950	9.377000
1699.728567	8.985400
1695.370117	9.276100
1695.231250	9.263600
1699.312650	9.104300
1690.291450	9.733700
1695.239650	9.435500
1700.600700	9.121400
1701.381700	9.095300
1701.077833	9.246600
1701.091550	9.259400
1698.039667	9.481000
1691.354267	9.891100
1695.223567	9.667600
1696.599767	9.595600
1701.371767	9.543700
1706.269917	9.261700
1705.162300	9.339500
1710.455117	9.021100
1707.731000	9.267500
1699.899150	9.770000
1704.322900	9.488900
1707.478517	9.338800
1710.583600	9.174200
1713.343367	9.019300
1707.416400	9.623600
1718.286083	8.985000
1710.621167	9.468700
1721.059150	8.853800
1716.103650	9.154700
1710.058583	9.618300
1712.335750	9.510800
1713.674783	9.443100
1710.872250	9.622700
1711.035950	9.613400
1710.003300	9.732800
1717.968250	9.440600
1720.226200	9.314900
1715.453633	9.638700
1718.015133	9.488400
1722.036717	9.260800
1719.426500	9.424700
1719.313583	9.447600
1715.551817	9.693700
1716.661167	9.716800
1714.990983	9.842100
1710.818200	10.103900
1717.087583	9.737700
1721.837017	9.494500
1726.674250	9.181400
1719.853983	9.648600
1713.885950	10.015700
1725.863250	9.641900
1730.107300	9.395600
1729.439550	9.468800
1731.156000	9.380300
1733.813683	9.329400
1733.428400	9.412700
1735.520633	9.294900
1729.821633	9.649800
1726.316300	9.867800
1724.834717	9.969100
1720.550883	10.313100
1729.558200	9.937100
1736.063517	9.563200
1737.446350	9.483800
1730.062133	9.954900
1727.787200	10.119500
1731.680300	9.896000
1731.436767	9.906400
1733.655967	9.785200
1738.398900	9.765800
1744.250600	9.489200
1737.123883	9.912000
1740.680867	9.721900
1739.023283	9.842100
1735.504400	10.078100
1736.738733	10.024800
1739.633600	9.852800
1737.473133	10.300200
1746.453917	9.797200
1742.354300	10.043600
1743.766050	9.973700
1758.084533	9.205500
1750.699983	9.706200
1754.905900	9.480500
1754.388517	9.502900
1753.855017	9.546400
1747.398017	9.941500
1753.737967	9.570400
1758.323833	9.374100
1758.727533	9.360900
1755.025417	9.598000
1749.062483	9.962400
1753.309417	9.876400
1758.139283	9.615900
1751.127550	10.057400
1756.555617	9.754000
1756.521017	9.762400
1757.190750	9.733100
1759.791100	9.758900
1752.355400	10.252400
1760.369300	9.786200
1766.375767	9.454300
1773.095383	9.048900
1770.025817	9.220900
1764.522450	9.744200
1769.291717	9.520600
1771.102950	9.413000
1766.830500	9.674000
1772.156917	9.433000
1767.911267	9.796600
1768.776233	9.753900
1770.539217	9.637900
1766.590317	9.880600
1769.456750	9.740900
1770.706733	9.753900
1766.891717	10.107700
1769.497900	9.974000
1771.525783	9.876600
1770.583450	9.930800
1778.711483	9.436200
1768.466517	10.051900
1773.457800	9.765200
1768.988733	10.034400
1773.060550	10.092500
1773.807317	10.093000
1775.973800	9.988100
1774.689167	10.092100
1776.486150	10.123100
1776.439367	10.167700
1783.225133	9.780900
1780.945600	9.913400
1776.770700	10.146800
1785.684333	9.617100
1784.193083	9.759900
1780.528917	10.001200
1788.845833	9.512100
1780.732567	10.000900
1785.170667	9.742300
1780.034333	10.063500
1777.229200	10.230200
1775.031100	10.359800
1777.566200	10.415600
1790.108450	9.930200
1784.671417	10.285300
1784.599133	10.300800
1789.785067	10.008400
1791.120300	9.957200
1790.366367	9.994900
1786.484550	10.234100
1792.137633	9.942000
1787.930533	10.475400
1799.896183	9.809400
1791.375783	10.328100
1790.811883	10.395300
1804.604967	9.604300
1792.709217	10.312600
1795.383367	10.162600
1802.127917	9.772000
1798.401433	10.257300
1804.111017	10.007500
1806.430867	9.891100
1806.459750	9.905900
1808.255017	9.810400
1810.118633	9.691200
1801.378750	10.202300
1799.991800	10.293800
1802.551467	10.255600
1803.528850	10.424900
1805.480967	10.355200
1811.246683	10.074000
1814.251450	9.893000
1814.065583	9.905700
1804.923467	10.474300
1806.540017	10.522900
1811.814850	10.212800
1812.959700	10.145300
1813.065917	10.137100
1815.909917	10.153300
1811.272083	10.467300
1816.279233	10.189200
1817.258800	10.142000
1822.043533	9.873600
1815.813167	10.251400
1824.485300	9.740900
1826.073250	9.626600
1828.481433	9.791400
1826.661150	9.906500
1817.313417	10.466500
1815.662617	10.570300
1826.685700	10.100900
1822.218150	10.362500
1822.807050	10.333100
1824.704950	10.253600
1827.837633	10.055700
1830.549767	9.899800
1823.205217	10.385800
1831.400450	9.993200
1828.212267	10.193800
1832.677400	9.927500
1835.393617	9.739000
1837.936550	9.599000
1834.756200	9.782000
1827.464300	10.215200
1831.869650	9.953000
1833.423767	10.024600
1829.935783	10.279200
1829.829433	10.320000
1834.901517	10.025500
1834.560050	10.140500
1841.595900	9.750500
1835.295333	10.150800
1838.431283	9.969000
1834.090567	10.372900
1843.345700	9.883400
1837.092133	10.317000
1834.650050	10.483100
1848.365650	9.679400
1838.754017	10.291900
1844.812483	9.943500
1838.887633	10.310100
1843.139933	10.079100
1843.346267	10.084300
1838.432683	10.541400
1841.868850	10.547000
1847.784900	10.211000
1843.329250	10.502600
1842.123600	10.579400
1844.159250	10.503500
1842.462850	10.640300
1849.351750	10.251500
1852.254133	10.097400
1850.938550	10.308200
1848.938050	10.467200
1850.065817	10.471300
1851.001967	10.439500
1853.828533	10.287900
1857.092183	10.135200
1853.825050	10.363100
1849.698483	10.632600
1855.773883	10.396500
1852.059133	10.710900
1874.836033	9.405900
1861.487733	10.197900
1862.322967	10.162000
1852.237733	10.758600
1860.650983	10.400700
1862.680483	10.399200
1863.510867	10.351900
1862.045300	10.458800
1860.870933	10.552800
1859.825200	10.622600
1863.592050	10.412900
1872.914450	10.040000
1873.107117	10.054900
1875.234167	9.931900
1864.785667	10.577500
1871.499317	10.254700
1871.872917	10.256200
1874.287983	10.135800
1872.849367	10.190800
1865.195517	10.663000
1868.125883	10.524000
1874.324183	10.349100
1871.784983	10.556100
1867.792667	10.814800
1867.816983	10.817700
1873.671067	10.503700
1873.615217	10.499500
1876.725317	10.323400
1875.584233	10.400700
1883.702417	10.043200
1884.629400	9.988100
1883.861333	10.146000
1886.406067	10.115800
1891.902750	9.881300
1883.651367	10.416100
1878.800083	10.722000
1884.493850	10.405100
1878.242600	10.856900
1883.184150	10.654400
1879.328217	10.925800
1884.703100	10.689800
1889.658717	10.403800
1888.887683	10.437300
1882.668183	10.866600
1895.017517	10.280500
1886.233667	10.827700
1885.418717	10.932400
1888.626017	10.756900
1894.967567	10.397500
1887.033783	10.877100
1898.994417	10.340800
1895.269333	10.563900
1899.282733	10.297800
1895.178583	10.563900
1896.336133	10.602300
1900.415750	10.433900
1904.645333	10.289700
1905.144800	10.270400
1894.394517	10.913800
1891.154600	11.123000
1904.035983	10.450500
1902.909050	10.544900
1897.835617	10.885900
1904.835717	10.503400
1891.177833	11.371500
1899.206933	10.919100
1904.003133	10.664100
1899.515333	11.080800
1904.655567	10.799200
1903.945417	10.863100
1900.142650	11.107100
1912.323300	10.539500
1917.360433	10.267200
1912.515000	10.635800
1912.520167	10.651600
1902.284467	11.260000
1908.574433	10.905300
1906.259333	11.183700
1913.630400	10.772900
1906.529783	11.254800
1914.441183	10.815300
1923.543950	10.261700
1923.543100	10.262300
1916.267183	10.770300
1921.532683	10.489500
1920.815000	10.563200
1917.393750	10.791500
1914.176367	11.005000
1915.354733	10.972800
1927.369667	10.319800
1925.106667	10.553800
1916.406400	11.121200
1926.139550	10.553300
1924.826600	10.680200
1927.395533	10.654200
1929.734350	10.524500
1926.563200	10.778300
1924.210267	10.934200
1920.086917	11.185000
1927.264567	10.780300
1927.067033	10.945800
1935.676183	10.444800
1932.643600	10.628000
1931.521200	10.700900
1927.715717	10.998100
1935.027633	10.583400
1936.961117	10.520500
1927.800683	11.061300
1945.134450	10.058900
1928.035250	11.080700
1936.050283	10.755600
1925.970017	11.410900
1922.051417	11.700100
1934.916500	10.968800
1923.917350	11.660600
1937.686700	10.873400
1939.504267	10.833400
1938.419400	11.024000
1939.271450	11.003000
1935.708000	11.256200
1941.761883	10.908600
1943.634000	10.795700
1938.610250	11.156900
1945.463383	10.859100
1941.043283	11.162100
1939.825933	11.272500
1945.605350	10.917200
1936.683067	11.510200
1944.256033	11.093400
1946.717050	10.998800
1942.461950	11.257400
1945.353217	11.107900
1947.012983	11.043300
1948.072083	11.153400
1953.285033	10.859400
1960.069467	10.474300
1955.781183	10.745700
1955.161417	10.918300
1965.338100	10.352000
1965.301167	10.376800
1961.882833	10.603200
1959.388550	10.730300
1959.883950	10.712600
1961.041317	10.639300
1952.823600	11.148200
1950.408017	11.400700
1962.648317	10.807600
1962.701750	10.815800
1964.645383	10.705500
1967.640283	10.553700
1963.942467	10.920400
1967.492467	10.751200
1969.193233	10.735500
1968.071950	10.799900
1965.184067	10.979800
1968.744717	10.793200
1963.609317	11.231800
1966.813233	11.087700
1968.977883	10.944600
1975.267183	10.583400
1975.725433	10.602000
1977.953200	10.504700
1967.080017	11.228500
1972.787150	10.868300
1978.486983	10.554600
1972.760833	10.919700
1964.893517	11.540200
1972.880750	11.106500
1958.287433	12.025800
1968.056550	11.459900
1972.568400	11.185100
1976.045233	10.990500
1977.379183	11.045700
1981.013067	10.914100
1974.548833	11.340900
1977.425583	11.182800
1982.176733	10.937100
1983.389800	10.946600
1988.934183	10.605300
1980.504017	11.162800
1974.625933	11.533500
1982.721067	11.076400
1984.419083	10.978500
1981.178233	11.309100
1991.511200	10.748000
1985.416633	11.182800
1988.016317	11.019400
1978.584167	11.583400
1984.948367	11.240200
1992.151350	10.977800
1991.328867	11.030800
1971.872400	12.219800
1984.311050	11.490500
1993.097183	11.039700
1998.305567	10.813600
1979.594117	12.031000
1991.724800	11.282000
1983.284450	11.810000
1990.077633	11.428500
1993.081250	11.277800
2002.661950	10.769000
1993.365383	11.334600
1996.201883	11.168400
1998.006167	11.096500
1996.582750	11.269400
1996.092483	11.316300
1987.916800	11.894000
1992.114350	11.657900
1991.515333	11.772300
1994.322433	11.636400
2000.906233	11.244300
1994.029983	11.683200
1996.636383	11.704500
2005.164933	11.204400
2006.569150	11.135900
2006.610367	11.146900
2004.922883	11.415600
2007.687633	11.294100
2005.203117	11.456200
2010.688450	11.123600
2026.016750	10.394600
2016.514033	10.943400
2015.573883	11.029200
2017.964350	10.937900
2013.918217	11.220700
2010.999967	11.451400
2013.165433	11.336100
2013.588967	11.334400
2013.667117	11.394400
2018.284167	11.259100
2011.303183	11.693100
2020.233433	11.183700
2021.384467	11.145100
2020.078383	11.365200
2019.284717	11.420200
2031.688633	10.760400
2018.838167	11.552800
2026.782750	11.083400
2017.814650	11.615900
2023.956400	11.315600
2019.518750	11.621900
2019.323417	11.667400
2020.958150	11.600900
2024.573467	11.401000
2022.179833	11.558400
2020.077933	11.842200
2022.789917	11.681800
2023.202267	11.686900
2029.674533	11.323800
2024.337683	11.740800
2030.931233	11.421300
2037.483133	11.045700
2029.813850	11.557700
2031.194417	11.495200
2041.385167	10.871200
2035.187750	11.277200
2039.045133	11.193300
2036.194967	11.371900
2040.905200	11.109800
2036.970167	11.329900
2037.651333	11.431200
2038.725500	11.410100
2039.098383	11.457600
2044.908567	11.118400
2040.623867	11.394100
2038.818833	11.493900
2032.629900	11.922800
2038.558050	11.624000
2039.923583	11.658600
2043.717250	11.436800
2054.360150	10.768700
2052.519883	10.898100
2049.727617	11.122600
2048.185183	11.344500
2049.131667	11.325400
2050.995733	11.262000
2058.970917	10.811200
2047.007950	11.534300
2042.656400	11.824400
2045.934717	11.788900
2052.536767	11.436400
2044.154967	11.943400
2047.163417	11.787700
2056.385467	11.410900
2052.147767	11.666500
2052.795633	11.656500
2057.635417	11.360500
2056.867167	11.555500
2058.688017	11.451400
2060.277917	11.429800
2057.522633	11.633100
2060.150833	11.559000
2053.956067	11.941900
2057.879550	11.726000
2061.604533	11.515800
2069.365433	11.187000
2067.421550	11.361500
2067.106300	11.359700
2074.468217	10.934800
2070.274233	11.199300
2064.541533	11.538000
2070.654100	11.274200
2068.400900	11.526200
2069.443917	11.497600
2063.008800	11.903600
2060.650983	12.104400
2064.176467	12.053200
2069.831900	11.753000
2068.137550	11.915600
2070.370633	11.797800
2078.908350	11.296700
2075.700250	11.496800
2072.270450	11.841200
2074.291750	11.763200
2068.550850	12.107300
2066.045017	12.275800
2075.606933	11.788200
2077.765333	11.678700
2076.846117	11.773000
2078.000733	11.712000
2085.495100	11.247800
2082.358833	11.463900
2080.146267	11.750800
2082.052100	11.683700
2079.640050	11.905100
2087.151900	11.428400
2084.653133	11.566500
2082.552767	11.705200
2096.217217	11.065900
2093.930167	11.221300
2092.207000	11.349200
2095.414033	11.163600
2085.855717	11.856700
2095.506417	11.359000
2090.709150	11.650400
2094.211200	11.457800
2090.272983	11.708100
2090.218717	11.720800
2092.299683	11.633400
2093.512067	11.639200
2087.877483	12.000300
2096.326567	11.555800
2100.683783	11.301300
2103.669933	11.136900
2094.210317	11.719300
2087.183067	12.307300
2087.885417	12.314200
2100.621950	11.588900
2104.493983	11.357400
2099.431067	11.767000
2101.840667	11.680300
2102.240550	11.742500
2106.675683	11.495400
2107.094250	11.480300
2105.484117	11.563600
2103.515433	11.780100
2103.292817	11.906500
2106.813133	11.719800
2109.889433	11.571600
2101.185233	12.120600
2108.842450	11.692700
2106.202567	11.908600
2110.667567	11.776900
2102.400450	12.300500
2105.756767	12.169300
2111.124933	11.870700
2105.721083	12.200100
2103.329083	12.400800
2108.231850	12.299000
2112.426900	12.061700
2119.880450	11.657300
2111.294500	12.157700
2109.570267	12.419800
2113.199417	12.250000
2121.331867	11.830000
2120.174850	11.926100
2113.547083	12.330000
2121.473483	11.863800
2117.225883	12.156900
2129.586433	11.426700
2119.573050	12.067700
2123.151100	11.880500
2123.110550	11.900900
2120.872483	12.058800
2122.062467	12.031900
2130.260300	11.674400
2123.485017	12.090700
2120.209183	12.330000
2120.961933	12.349800
2131.214550	11.893400
2128.176200	12.084200
2129.471250	12.072200
2126.038983	12.268500
2124.147117	12.376600
2126.584950	12.240800
2122.940150	12.647300
2136.232400	11.855300
2129.818167	12.244300
2130.068450	12.230300
2135.984500	11.968100
2143.728267	11.518900
2144.541300	11.531000
2137.834567	11.949400
2132.134500	12.303800
2138.777617	11.911300
2142.251883	11.782500
2139.691050	12.017300
2147.774417	11.593900
2136.243500	12.304400
2145.286117	11.768800
2134.617933	12.422400
2142.634983	11.991900
2136.466500	12.489800
2146.027783	11.966100
2144.504000	12.103700
2138.468633	12.486600
2137.766950	12.552200
2144.432517	12.174400
2147.945367	12.101200
2149.355783	12.037500
2150.095450	12.013100
2150.284367	12.002800
2138.633683	12.881700
2143.659900	12.618500
2152.075983	12.175500
2158.104583	11.792700
2162.338017	11.701600
2160.487133	11.821800
2149.066433	12.543300
2152.915683	12.354600
2150.100117	12.569800
2153.033117	12.416200
2147.719183	12.763200
2148.780217	12.702400
2150.420167	12.639400
2152.934617	12.530200
2159.149900	12.230300
2155.995650	12.375200
2163.027317	12.057700
2154.960433	12.720300
2162.534617	12.308500
2160.418800	12.465500
2162.566333	12.354900
2154.872233	12.823500
2150.040850	13.127600
2162.947667	12.497500
2175.972950	11.759000
2174.523283	11.898600
2170.106533	12.154800
2178.087067	11.707600
2172.386667	12.061000
2166.380317	12.588700
2170.603317	12.343600
2180.855417	11.711800
2176.620467	11.994700
2174.286117	12.267700
2174.485967	12.300700
2175.646917	12.306400
2174.286833	12.384600
2176.535317	12.262600
2178.729300	12.143300
2174.099817	12.527500
2175.297833	12.496800
2181.623183	12.146400
2178.095183	12.358200
2180.363000	12.249200
2186.840467	12.002500
2181.510967	12.337600
2183.319917	12.262600
2188.776700	11.941100
2185.865967	12.114100
2179.519300	12.496100
2185.190067	12.236200
2181.856067	12.473800
2186.308183	12.280200
2182.427833	12.533100
2193.114800	11.941100
2187.412333	12.304500
2183.682433	12.648000
2188.591600	12.449000
2184.737033	12.786300
2180.286567	13.077100
2188.776483	12.613200
2192.511417	12.376600
2185.391683	12.892200
2190.701367	12.710500
2191.138300	12.722000
2187.111667	13.013800
2191.284100	12.771800
2188.790617	12.936400
2192.352117	12.756400
2197.500950	12.477200
2189.818083	12.951900
2189.790383	12.963000
2201.012900	12.301100
2210.720750	11.869700
2198.400433	12.641100
2197.443100	12.778100
2198.972900	12.697100
2192.789767	13.077700
2198.251683	12.768300
2206.612383	12.422100
2214.588083	11.973600
2208.786717	12.377200
2210.267350	12.305000
2204.277883	12.653400
2214.008033	12.081300
2220.078833	11.873700
2211.908917	12.412300
2200.476650	13.115000
2212.198517	12.433600
2211.672783	12.577800
2216.874067	12.359500
2214.898117	12.505300
2214.497583	12.552000
2214.070183	12.605700
2211.663233	12.750600
2210.947300	12.831800
2214.380650	12.761000
2215.135900	12.740000
2214.491467	12.820900
2217.415067	12.646000
2221.278917	12.436900
2226.002133	12.152100
2226.943450	12.276200
2220.430050	12.671600
2214.680483	13.044600
2220.245233	12.731100
2231.248917	12.199600
2233.811683	12.089100
2234.450100	12.099200
2223.666883	12.775800
2228.717717	12.483400
2219.703917	13.038100
2223.071433	12.917400
2222.635533	12.978600
2219.323467	13.209400
2225.852050	12.831800
2229.397467	12.681400
2227.973850	12.824600
2235.182983	12.435900
2229.720983	12.825000
2229.171383	12.882300
2228.694200	12.940400
2229.558133	12.947700
2228.564950	13.174400
2235.727933	12.775200
2238.326550	12.648200
2237.010650	12.739100
2236.701533	12.917400
2243.375633	12.531000
2241.147517	12.731200
2235.491983	13.080000
2240.929950	12.838700
2248.214350	12.410000
2247.659050	12.458000
2245.697067	12.580000
2235.472167	13.371100
2247.822000	12.636500
2249.388967	12.590500
2248.771800	12.608600
2241.644500	13.156700
2250.357400	12.707300
2250.989233	12.754800
2249.707200	12.854000
2245.891650	13.091300
2254.873583	12.543600
2247.791950	13.008500
2250.993950	12.859700
2248.164250	13.050200
2252.751733	12.811500
2256.800000	12.593300
2256.791033	12.603000
2253.754067	12.834700
2262.396233	12.492600
2252.379817	13.119700
2262.461650	12.514400
2254.522433	13.048500
2251.991250	13.350800
2258.547217	12.997000
2257.655483	13.107300
2254.881583	13.282800
2270.559283	12.359400
2259.350850	13.031900
2262.601183	12.981600
2267.802800	12.689000
2267.008600	12.781100
2259.907600	13.224500
2266.576150	12.838700
2266.796000	12.831800
2276.110933	12.461100
2277.279717	12.400000
2275.860683	12.503100
2271.190817	12.773800
2268.362267	13.032100
2270.934717	12.985000
2274.209183	12.817800
2273.356167	12.888100
2269.990800	13.076000
2282.403800	12.357800
2281.146883	12.478200
2277.200233	12.843300
2275.980550	12.941900
2281.460567	12.681400
2281.121250	12.679400
2270.063667	13.342300
2275.476200	13.037300
2281.167000	12.877700
2274.546717	13.271800
2277.950967	13.102300
2273.871067	13.360600
2275.336233	13.426800
2282.674217	13.028200
2280.459850	13.226900
2282.063283	13.120800
2274.177067	13.604500
2272.697917	13.718200
2277.458000	13.588400
2282.525133	13.360800
2283.006000	13.377800
2286.232783	13.209000
2290.767583	12.963900
2285.860917	13.261000
2296.346083	12.674700
2290.073950	13.184900
2296.580033	12.785400
2286.953267	13.370500
2296.806983	12.807900
2288.389133	13.372200
2294.120433	13.048500
2293.136350	13.146500
2296.120783	12.989100
2293.537833	13.143900
2290.065733	13.365000
2296.493467	13.049200
2290.351150	13.438100
2299.267817	12.960100
2302.015950	12.796100
2301.144450	12.870200
2298.884350	13.015700
2297.493417	13.268800
2305.663100	12.785600
2309.829717	12.559000
2303.210817	12.973300
2306.454067	12.886000
2302.009867	13.229200
2309.454667	12.823000
2308.113717	12.985600
2301.297083	13.386300
2302.443567	13.335700
2309.953250	12.935300
2313.705217	12.877600
2307.702450	13.261100
2304.527450	13.471400
2304.177483	13.535100
2307.992867	13.333600
2304.254167	13.604500
2307.986017	13.522900
2309.892333	13.436700
2318.218867	12.964600
2317.334117	13.017100
2316.250683	13.242300
2312.283483	13.531800
2313.188200	13.567100
2316.658833	13.386300
2320.633483	13.147200
2323.365967	12.992200
2318.216583	13.426800
2328.361950	12.891800
2319.002200	13.489100
2326.486400	13.053500
2318.075633	13.587000
2318.122883	13.601700
2322.100067	13.446400
2328.233767	13.179100
2327.728583	13.241400
2328.457433	13.227600
2327.625367	13.288300
2330.827483	13.110900
2326.394400	13.397300
2338.604433	12.771000
2339.192967	12.720100
2328.492933	13.365000
2332.118133	13.173600
2340.911483	12.779700
2339.145383	12.915000
2331.039150	13.478600
2335.407083	13.246500
2335.640900	13.265300
2338.932733	13.076100
2329.810000	13.740200
2337.306817	13.364500
2331.528450	13.793300
2345.743133	12.960000
2338.013267	13.445200
2343.960850	13.104500
2337.103617	13.581100
2346.347317	13.141600
2343.778567	13.303300
2344.403267	13.309300
2353.707833	12.896400
2347.571083	13.293300
2344.915867	13.480000
2351.539033	13.165200
2349.929983	13.272600
2350.180633	13.259400
2350.743917	13.235800
2358.399750	12.817100
2350.799033	13.257600
2348.978350	13.534100
2362.127267	12.748000
2359.001617	12.942400
2355.413750	13.170200
2355.477717	13.314700
2357.859117	13.184200
2344.643817	13.990000
2358.700717	13.169200
2358.632283	13.250100
2362.507867	13.077400
2358.368233	13.373700
2356.663000	13.475600
2351.121283	13.826400
2358.345950	13.428200
2369.787700	12.837200
2362.890117	13.332400
2353.414517	13.942600
2376.336883	12.668700
2373.024200	12.857300
2363.429517	13.424200
2370.800283	13.015500
2370.721983	13.185900
2366.936900	13.454900
2375.958483	12.918300
2374.818300	12.993200
2369.053583	13.386300
2372.544583	13.208700
2371.299400	13.381100
2366.941333	13.639800
2370.907050	13.484600
2368.617467	13.632700
2371.811883	13.607100
2378.607250	13.267700
2382.492367	13.106200
2378.851933	13.345200
2381.240300	13.216400
2375.505817	13.564900
2388.415900	12.950600
2388.719950	12.946100
2383.929317	13.258300
2381.820267	13.376200
2382.182167	13.438900
2382.693917	13.537000
2384.683783	13.453800
2387.171450	13.340300
2379.247983	13.840500
2384.447800	13.554200
2385.227283	13.539000
2384.249550	13.726100
2386.842667	13.609000
2385.971950	13.713200
2394.899767	13.178200
2386.590750	13.672100
2383.575867	13.870600
2392.660583	13.410000
2383.881550	13.947500
2393.582400	13.374800
2388.671517	13.690900
2393.426383	13.555800
2391.042583	13.745400
2401.772383	13.161300
2397.549900	13.423700
2385.658800	14.158700
2386.941000	14.100200
2390.168500	14.035400
2397.215033	13.659900
2392.003733	14.066100
2400.107450	13.613300
2393.846883	13.992600
2392.154417	14.102800
2400.097483	13.723800
2397.404500	13.998200
2406.160150	13.491800
2393.626400	14.293100
2403.038550	13.757900
2404.521950	13.691900
2403.665567	13.754500
2399.817200	14.059100
2402.499433	13.932300
2407.254217	13.652200
2405.098933	13.791600
2411.740600	13.481600
2402.071200	14.084600
2405.430067	13.927300
2418.247900	13.186100
2419.795567	13.102300
2414.179333	13.460700
2405.375000	14.018900
2412.477567	13.584100
2412.334300	13.789100
2410.850583	13.921200
2412.413717	13.885000
2412.718983	13.906800
2416.337533	13.751400
2417.506017	13.699600
2405.285167	14.426200
2414.831683	13.880100
2412.853350	14.054000
2410.107350	14.379500
2420.499883	13.795200
2421.595483	13.790100
2428.389000	13.395500
2418.385633	13.993500
2420.761833	13.861500
2424.823150	13.747100
2426.106833	13.771500
2422.722183	14.043000
2421.147033	14.165700
2422.330017	14.113000
2426.303850	13.884800
2417.117250	14.608100
2433.534750	13.669700
2430.300350	13.871000
2436.128883	13.534800
2429.674833	14.030400
2438.363717	13.555300
2434.151317	13.870300
2428.990083	14.185200
2447.852900	13.074800
2433.039867	13.979200
2433.240767	14.050300
2438.757500	13.814900
2440.939217	13.722700
2437.081717	13.996300
2438.215867	13.932700
2441.923883	13.716000
2443.654017	13.651000
2446.202100	13.549400
2445.744183	13.588800
2434.001700	14.312300
2437.063683	14.172300
2447.117133	13.740900
2445.064783	13.862700
2445.264700	13.866800
2442.942233	14.030700
2439.901517	14.235700
2445.278267	13.908100
2450.737317	13.774600
2452.073317	13.755700
2447.455050	14.058200
2451.804733	13.813200
2447.846550	14.071700
2450.655783	13.914600
2449.145483	14.087100
2456.028883	13.670100
2438.937450	14.737400
2447.655100	14.237000
2447.104017	14.322700
2450.003767	14.191300
2446.012183	14.484900
2445.475583	14.585700
2454.102600	14.106500
2452.016517	14.250400
2453.435783	14.251200
2453.404517	14.384500
2453.811650	14.396900
2459.469383	14.127300
2445.395167	14.996500
2452.546400	14.615300
2462.681550	14.035400
2462.941617	14.220400
2464.829233	14.133900
2468.149883	13.972800
2465.304500	14.144000
2465.025517	14.286400
2471.390917	13.961200
2468.336467	14.205100
2469.829267	14.141800
2468.424517	14.215600
2468.045633	14.254200
2470.077067	14.275900
2469.096633	14.328900
2459.685967	14.907700
2466.448683	14.529000
2476.068633	13.995900
2482.142550	13.689800
2476.029017	14.074600
2484.918383	13.576500
2479.570800	13.934600
2474.968150	14.273300
2477.558950	14.128400
2479.747700	14.009300
2478.173283	14.110500
2477.800400	14.339900
2480.898450	14.129000
2482.374333	14.076600
2477.004717	14.386000
2487.216167	13.925500
2482.682617	14.233900
2494.453067	13.585600
2490.600800	13.836500
2486.099067	14.083600
2479.106667	14.515300
2480.334250	14.508800
2480.684617	14.545300
2489.736083	14.034600
2488.871850	14.119100
2487.422700	14.230400
2483.102217	14.517100
2495.286817	13.876600
2484.632000	14.617100
2490.188417	14.327500
2488.186833	14.471700
2487.070450	14.571800
2490.706983	14.512200
2494.626983	14.329800
2494.204117	14.400100
2496.005000	14.301800
2498.387317	14.166700
2497.204500	14.238500
2504.073283	13.920300
2498.731500	14.261900
2496.678933	14.399700
2506.009933	13.872900
2508.353033	13.782300
2494.318750	14.655800
2504.387300	14.131100
2503.031383	14.238600
2508.350583	13.942800
2502.876750	14.285600
2514.976950	13.695200
2513.321917	13.843300
2503.186700	14.480900
2508.427950	14.225000
2505.395450	14.418500
2505.992917	14.429500
2519.249133	13.677900
2506.857117	14.536900
2516.266200	13.997900
2511.045800	14.323700
2514.990950	14.158100
2514.325567	14.342800
2517.423083	14.174700
2516.384483	14.297700
2517.551117	14.242000
2512.531117	14.559100
2505.953983	14.967300
2508.088317	14.923900
2516.844533	14.452500
2519.000583	14.372400
2514.134733	14.673600
2518.394700	14.405300
2527.123817	13.895800
2523.693567	14.256100
2517.307317	14.691100
2522.046950	14.499200
2516.970083	14.801700
2533.452567	13.828300
2526.108683	14.268900
2528.256100	14.323100
2524.362167	14.566300
2537.321767	13.786300
2532.662533	14.077200
2521.348367	14.831800
2534.012100	14.193500
2535.397600	14.117600
2533.807800	14.275100
2533.796733	14.296200
2535.965400	14.162900
2542.141833	13.830900
2535.553400	14.386700
2540.020400	14.147900
2547.279300	13.763000
2535.624700	14.454200
2539.228900	14.235800
2533.269450	14.606300
2540.307250	14.258600
2537.511067	14.452900
2539.356667	14.357200
2542.053433	14.207700
2542.438117	14.254900
2539.637383	14.476500
2552.874750	13.841600
2549.457350	14.058200
2551.718833	13.992600
2547.003200	14.261900
2544.540600	14.540900
2538.943683	14.918400
2548.623450	14.433200
2543.253683	14.751600
2545.099000	14.662400
2548.079850	14.521100
2542.766633	14.960100
2554.025483	14.391900
2554.229817	14.398000
2555.221317	14.371600
2544.966133	15.049500
2553.751917	14.680300
2550.012700	14.948900
2547.056167	15.199900
2553.332100	14.829200
2556.095333	14.665200
2561.020767	14.387200
2549.819417	15.211600
2555.241683	14.939700
2563.475950	14.433200
2563.513850	14.430200
2563.629567	14.548600
2563.193050	14.623400
2567.329800	14.442200
2565.144650	14.570300
2567.420900	14.454200
2569.616850	14.322800
2562.975083	14.827500
2568.056050	14.606000
2566.072650	14.779400
2558.168500	15.276800
2570.880800	14.541200
2563.243050	14.994800
2560.111267	15.340600
2572.769433	14.622000
2575.867817	14.438500
2570.409733	14.780100
2574.698333	14.591400
2573.409500	14.767700
2571.106367	14.933800
2570.474067	15.036400
2569.961367	15.072400
2572.035517	14.977900
2576.498167	14.728600
2578.061850	14.765600
2582.896300	14.514500
2575.982417	14.976100
2572.246850	15.213500
2571.692967	15.270100
2580.633767	14.739100
2576.598583	15.147900
2583.106500	14.793200
2585.608017	14.700700
2577.486433	15.194700
2579.289467	15.114400
2578.679550	15.171800
2586.637100	14.800400
2585.599117	14.864500
2583.311133	15.016200
2589.897483	14.641200
2588.991450	14.760800
2584.852350	15.104600
2586.978700	14.995700
2589.002633	14.879100
2584.834567	15.179800
2585.195500	15.241700
2574.209383	15.930900
2583.626467	15.427900
2596.295150	14.720000
2589.014867	15.220900
2594.722767	14.917900
2594.459167	14.960200
2590.305250	15.228200
2593.205917	15.259600
2595.433283	15.124200
2606.685400	14.495000
2605.947683	14.547900
2602.357133	14.807400
2602.312400	14.819000
2611.615950	14.303900
2605.762717	14.669800
2606.402733	14.623800
2600.607367	15.013000
2608.762650	14.649500
2610.837217	14.571400
2607.908117	14.831800
2612.599417	14.579500
2621.702783	14.048100
2613.512017	14.550700
2618.015300	14.339900
2607.810617	15.067600
2617.924150	14.485700
2614.085800	14.724200
2617.413617	14.552800
2615.598550	14.810900
2613.577567	14.962600
2616.926867	14.824000
2613.553067	15.038200
2615.121883	14.978100
2619.220850	14.748800
2621.333033	14.787000
2616.375350	15.085400
2630.046750	14.261900
2618.895217	14.952100
2631.701250	14.241800
2621.536700	14.890400
2615.025267	15.326800
2628.524783	14.549100
2614.107567	15.474400
2617.071767	15.326200
2615.632000	15.447500
2619.208767	15.248200
2618.791783	15.341100
2631.914450	14.680100
2625.188117	15.089500
2630.105067	14.798500
2623.785550	15.227300
2631.809900	14.930000
2624.795117	15.391300
2630.013300	15.116000
2631.390800	15.055100
2623.896817	15.535600
2631.004317	15.154600
2641.820083	14.664000
2640.071267	14.772700
2640.522700	14.768900
2636.536283	15.037500
2630.129567	15.415000
2638.790867	14.923000
2631.087633	15.394800
2637.161550	15.049700
2631.641750	15.442400
2634.708650	15.300800
2643.331550	14.901200
2640.267167	15.112000
2645.387367	14.894800
2642.813700	15.063200
2644.792117	14.976100
2643.193600	15.092900
2648.886483	14.824500
2641.979483	15.344100
2645.368333	15.166800
2643.197367	15.340300
2640.571667	15.586300
2649.842850	15.160400
2646.947133	15.382200
2654.035983	14.978700
2652.692050	15.052100
2657.528133	14.763300
2652.160400	15.095300
2650.319517	15.376000
2649.631367	15.462700
2662.050167	14.773600
2663.573817	14.704600
2664.472117	14.647300
2656.171683	15.165900
2659.110117	15.078400
2665.114533	14.743800
2664.878633	14.795100
2657.925050	15.227000
2665.101900	14.963000
2656.689683	15.527700
2672.695700	14.678000
2661.303750	15.376700
2671.164150	14.800400
2667.554467	15.040300
2664.421050	15.333800
2666.421517	15.287200
2662.494267	15.583900
2671.316183	15.107100
2667.051367	15.354100
2664.565083	15.513000
2673.595017	14.998900
2670.319833	15.249300
2677.442317	14.852800
2671.761400	15.269600
2678.422500	14.894000
2679.923733	14.825400
2672.890750	15.257000
2675.393033	15.292200
2679.576167	15.084400
2683.240850	14.889500
2683.185583	14.877600
2685.369550	14.855600
2682.689033	15.077700
2684.237700	15.052100
2685.101283	15.028200
2674.710567	15.665800
2682.571550	15.212300
2680.253900	15.426800
2681.289600	15.468200
2683.466883	15.376500
2689.744500	15.050000
2693.021083	14.876400
2687.792133	15.198300
2685.320350	15.377300
2686.713767	15.446200
2692.558383	15.144900
2686.855017	15.563500
2695.240283	15.070500
2691.540067	15.307000
2702.346183	14.663400
2697.190033	15.140700
2698.303267	15.071500
2700.526467	14.959000
2706.582383	14.589000
2699.906800	15.117500
2701.264550	15.055400
2698.779017	15.238000
2692.269817	15.664300
2700.186533	15.208800
2698.885333	15.292800
2693.818283	15.762000
2701.088933	15.357000
2696.361867	15.707800
2703.067583	15.275700
2704.322267	15.214300
2699.253317	15.601600
2705.190500	15.291800
2711.221967	14.947900
2705.005583	15.364200
2707.278917	15.242500
2704.139900	15.458000
2710.651617	15.232600
2703.620333	15.665100
2709.982500	15.382100
2715.297917	15.071800
2711.617700	15.297200
2707.009017	15.604600
2705.125250	15.875600
2718.275750	15.143300
2713.893167	15.463000
2721.672550	15.027500
2712.657100	15.593900
2703.475750	16.172300
2713.581950	15.746600
2714.714650	15.702500
2715.314717	15.689200
2715.959517	15.655000
2716.567200	15.723500
2719.622550	15.543200
2721.300983	15.487500
2715.285617	15.871000
2722.187183	15.576600
2721.908833	15.688800
2726.313367	15.467200
2732.908733	15.100500
2727.958983	15.444000
2727.175733	15.546600
2726.106567	15.643300
2730.814833	15.380400
2728.622633	15.556500
2732.809083	15.463200
2731.401500	15.559400
2735.794400	15.347000
2731.176267	15.638800
2733.337383	15.656700
2738.130383	15.395100
2731.295983	15.897600
2737.008517	15.542800
2741.144983	15.321900
2736.867600	15.592400
2739.461300	15.593600
2742.872317	15.425200
2742.040950	15.483200
2746.612867	15.227800
2745.379017	15.319600
2745.798133	15.279000
2738.306483	15.901800
2742.962650	15.609500
2737.177817	15.998500
2745.376733	15.516900
2747.953300	15.404900
2746.566750	15.637700
2749.135667	15.492700
2745.182933	15.821400
2748.904550	15.617900
2746.692900	15.772100
2748.981433	15.663000
2753.610733	15.570300
2756.161483	15.413100
2751.429667	15.707800
2752.075017	15.674500
2753.653483	15.727200
2761.345850	15.309500
2767.203050	15.045800
2754.411050	15.815300
2764.929100	15.217400
2753.626000	15.886100
2760.575533	15.617100
2761.091467	15.610600
2760.876017	15.628300
2763.277350	15.509000
2756.940117	15.883300
2756.290200	15.941900
2753.642467	16.143100
2762.068317	15.796900
2757.592933	16.112400
2767.071083	15.626700
2767.575850	15.592400
2762.750233	15.888300
2764.482983	15.794100
2759.989600	16.165100
2762.502850	16.014800
2767.609800	15.733400
2759.254983	16.270500
2759.735033	16.406700
2765.081983	16.096200
2775.362300	15.501500
2774.174117	15.580600
2771.794533	15.910200
2769.565850	16.041500
2778.517833	15.566100
2783.365167	15.312100
2778.216400	15.702500
2778.032417	15.711400
2768.480633	16.290000
2771.290517	16.143100
2775.530017	15.987100
2772.123300	16.287500
2774.047950	16.206800
2784.320517	15.631300
2773.547817	16.303900
2776.161167	16.149700
2781.937367	15.857200
2785.810883	15.798000
2785.597467	15.823900
2786.088117	15.790300
2782.240433	16.053900
2775.016800	16.621700
2782.514983	16.180500
2786.029650	16.048700
2785.649700	16.110200
2803.325500	15.052100
2795.127767	15.549100
2791.452650	15.908600
2790.313067	16.023400
2792.822383	15.966900
2790.239400	16.126100
2795.443033	15.823200
2794.639350	15.869000
2795.669633	15.900900
2796.201450	15.955400
2793.535017	16.111600
2796.271350	15.996200
2793.245067	16.271800
2800.348267	15.946600
2799.796200	15.986600
2798.083917	16.135900
2792.679967	16.481800
2797.007883	16.241700
2793.862167	16.467400
2799.800733	16.210800
2803.709917	15.984400
2810.996183	15.547800
2797.071367	16.416700
2802.693733	16.227000
2805.873100	16.060700
2801.795200	16.399400
2797.954100	16.622600
2813.701400	15.694400
2803.216450	16.354400
2803.336800	16.499000
2810.429867	16.105300
2823.005000	15.438200
2815.602033	15.891300
2812.508650	16.080200
2814.350250	15.960200
2808.821917	16.345600
2810.534367	16.296100
2810.855300	16.373900
2814.205000	16.189400
2822.834117	15.698800
2817.514283	16.029600
2823.777650	15.672800
2824.899933	15.682200
2819.916667	15.994300
2814.878000	16.323500
2819.235867	16.127800
2825.682450	15.857900
2820.176450	16.233800
2815.068167	16.629100
2819.416500	16.380200
2817.513250	16.529300
2825.572617	16.061800
2821.326567	16.496500
2831.383067	15.932500
2821.393817	16.597300
2823.766467	16.493200
2835.554867	15.796900
2828.127367	16.234900
2827.775733	16.277400
2827.273417	16.306000
2817.237733	17.139600
2822.169400	16.868000
2827.963150	16.576700
2833.819967	16.304500
2835.293217	16.255000
2829.084000	16.681400
2838.905133	16.085400
2837.620717	16.185100
2831.406783	16.632900
2839.308183	16.224600
2831.930500	16.689500
2841.049383	16.237500
2842.106267	16.164100
2837.682833	16.420500
2843.252783	16.105200
2842.808783	16.277700
2838.024833	16.599000
2842.385350	16.369100
2837.271817	16.669300
2845.956183	16.320300
2843.933650	16.485800
2847.141233	16.380900
2845.876117	16.438300
2850.702083	16.173300
2849.420783	16.249500
2848.069067	16.457800
2839.459383	17.012100
2860.997200	15.765500
2847.849233	16.593600
2851.571100	16.377800
2854.954683	16.187700
2848.703250	16.688600
2852.506733	16.499100
2861.636583	15.957300
2855.041350	16.373900
2855.366333	16.408200
2858.949450	16.299800
2857.820067	16.411000
2851.654650	16.829300
2854.097217	16.708900
2860.646850	16.329500
2856.047467	16.609900
2855.232667	16.839100
2865.137283	16.297800
2867.015500	16.257200
2859.148600	16.731200
2869.350900	16.126400
2861.132483	16.612200
2871.777317	16.125100
2876.366300	15.863900
2875.234583	15.948300
2872.531267	16.096600
2871.117667	16.327900
2871.609333	16.356600
2868.626533	16.585800
2869.830683	16.523400
2877.179633	16.087200
2873.258133	16.335600
2869.904950	16.646600
2876.883833	16.307700
2875.843133	16.430100
2868.825183	16.884000
2872.131833	16.698300
2873.431617	16.644700
2872.569883	16.736700
2877.439283	16.609200
2890.427050	15.840200
2880.870783	16.397100
2870.464283	17.039400
2884.552017	16.369600
2884.676267	16.390300
2884.303450	16.393700
2874.761117	16.993600
2882.541533	16.612500
2883.389450	16.550000
2886.077583	16.531800
2882.384200	16.826300
2895.765167	16.117600
2895.308817	16.135900
2886.403950	16.682600
2889.303583	16.519200
2884.274283	16.951500
2891.329550	16.581200
2886.895483	16.908900
2891.692050	16.632800
2892.043883	16.636800
2887.497200	16.914800
2888.463217	16.895500
2884.953250	17.298500
2891.543533	16.930500
2903.404150	16.221800
2902.791050	16.282100
2897.075083	16.779900
2897.021917	16.805500
2904.477850	16.422800
2901.613917	16.613800
2899.459367	16.762000
2904.649817	16.472800
2897.225083	17.038200
2901.854550	16.808600
2907.442683	16.535700
2902.172833	16.852200
2903.451717	16.783600
2905.689683	16.640700
2915.119533	16.273200
2908.417000	16.674800
2911.409833	16.503300
2900.235483	17.203200
2899.932983	17.319000
2911.541000	16.712300
2916.623867	16.446400
2918.700867	16.367500
2917.019383	16.480500
2920.746800	16.259900
2923.051133	16.142400
2915.467183	16.647300
2903.373317	17.407900
2917.553433	16.659000
2917.537350	16.664300
2920.423883	16.477500
2908.803250	17.184800
2917.735667	16.811500
2916.777167	16.882600
2919.036767	16.781500
2924.644383	16.459200
2926.217917	16.507300
2922.664217	16.749100
2920.484000	16.943000
2922.404250	16.841300
2928.874450	16.454300
2923.784017	16.753600
2925.856333	16.684200
2921.202283	16.997400
2926.749117	16.707700
2922.808883	16.980000
2924.732367	16.873900
2930.479667	16.553500
2933.749967	16.442500
2932.437617	16.627600
2930.022667	16.804000
2933.776667	16.613800
2932.650533	16.754700
2928.118900	17.138300
2928.488233	17.166600
2931.406917	17.060500
2925.721367	17.421400
2926.543283	17.410500
2934.515533	16.925400
2940.165350	16.754000
2933.766650	17.188100
2938.608150	16.983500
2936.547617	17.105800
2935.190533	17.203200
2932.342517	17.395900
2930.277867	17.674600
2937.964900	17.243900
2950.450967	16.529500
2949.501383	16.598400
2946.447533	16.878900
2943.848483	17.080800
2942.434967	17.248000
2949.804317	16.825600
2945.234967	17.118700
2950.791783	16.770600
2942.911033	17.355600
2947.159417	17.200000
2949.150233	17.092800
2951.390067	17.032600
2947.978600	17.255000
2946.834967	17.347000
2953.964650	16.950800
2954.703967	17.077600
2952.523483	17.217000
2966.848867	16.381900
2961.756833	16.668600
2961.710967	16.814500
2961.528583	16.892700
2963.544533	16.841700
2959.447633	17.090100
2965.042217	16.758100
2964.236300	16.792100
2961.153850	17.102900
2960.086333	17.201400
2959.854650	17.265500
2968.317867	16.772500
2957.744083	17.419200
2961.087650	17.219600
2969.562083	16.856400
2962.754750	17.278100
2962.664783	17.333700
2958.936100	17.546300
2971.444750	16.870400
2968.483150	17.210600
2971.788450	17.054900
2967.055900	17.389400
2973.490883	17.007600
2968.986017	17.293300
2973.796250	17.031500
2973.725800	17.145200
2969.220100	17.459600
2971.053950	17.393300
2977.425633	17.046600
2974.463417	17.237200
2972.590500	17.375300
2977.191533	17.172900
2979.397717	17.057800
2982.483283	16.902600
2982.197150	16.926800
2989.614383	16.495800
2976.114283	17.323500
2974.309850	17.653700
2983.148700	17.117000
2986.382667	16.945600
2980.328567	17.338300
2986.259967	17.111500
2988.342733	17.079300
2989.554067	17.059900
2982.783250	17.525900
2986.598700	17.297000
2986.000950	17.321300
2988.863867	17.242300
2992.400867	17.108800
2989.107950	17.331500
2992.895267	17.129200
2992.242883	17.216100
2995.923533	17.115000
3000.586567	16.853800
2990.368583	17.512500
2991.073467	17.503600
2995.109933	17.273400
2991.165067	17.524000
2995.033783	17.375400
3001.338200	17.042000
2998.759667	17.248000
3003.412600	16.961900
2994.533233	17.521200
2999.420417	17.228800
3007.537683	16.895400
3003.910733	17.162700
2998.007433	17.618700
3008.762083	16.967700
2991.333933	18.024600
3002.133350	17.393900
3009.558050	17.155400
3009.722550	17.141000
3004.109533	17.527800
3011.196017	17.087200
3010.767133	17.160600
3007.064800	17.529500
3011.639950	17.297000
3009.477717	17.451400
3014.997500	17.119400
3001.045867	17.971900
3012.035767	17.349400
3010.010700	17.621000
3010.621467	17.614600
3016.423317	17.349400
3014.972250	17.438000
3011.208100	17.681600
3014.342533	17.507700
3011.875350	17.849000
3016.207550	17.622200
3011.380150	17.896700
3014.857833	17.693400
3012.887767	17.967700
3015.806600	17.837600
3028.149383	17.181600
3024.799400	17.348900
3019.695500	17.639000
3014.269133	17.987400
3014.528000	18.069200
3029.683333	17.249100
3025.470250	17.580200
3029.752167	17.324500
3029.747133	17.332500
3023.953717	17.709100
3021.246067	17.910700
3030.968317	17.405800
3031.664533	17.396700
3033.327367	17.300200
3025.198250	17.810300
3025.414433	17.948700
3032.611667	17.551600
3037.101350	17.397200
3035.188250	17.535500
3037.180033	17.443200
3038.069700	17.387000
3035.928083	17.699100
3045.662950	17.148500
3042.230967	17.332000
3041.739550	17.382200
3036.320067	17.822200
3046.558217	17.295100
3040.335867	17.737600
3040.477883	17.736900
3033.329383	18.146700
3039.827583	17.811000
3044.332883	17.598300
3050.637417	17.382700
3045.249450	17.733500
3049.382417	17.525500
3050.705900	17.455100
3046.205400	17.730200
3050.592817	17.487700
3050.735133	17.650200
3050.942567	17.656300
3061.416383	17.029500
3053.096117	17.550400
3060.505500	17.315000
3057.346950	17.504000
3063.970900	17.144900
3059.251567	17.422900
3061.191200	17.361200
3060.767633	17.400600
3060.559183	17.435100
3054.344850	17.808200
3066.296967	17.097700
3063.547450	17.253500
3063.549283	17.454300
3058.660017	17.782900
3059.189433	17.802300
3066.599700	17.404100
3069.468083	17.251500
3063.591717	17.635600
3062.945017	17.693200
3069.153017	17.327800
3065.298933	17.634300
3072.028883	17.333400
3070.508783	17.454300
3069.911833	17.512800
3064.940767	17.818900
3069.569767	17.707300
3069.035433	17.792100
3064.379883	18.141900
3069.627267	17.838700
3073.058383	17.648400
3065.129950	18.129200
3075.927433	17.627400
3059.022267	18.669100
3064.543433	18.399000
3076.910850	17.666900
3074.775733	17.802600
3077.699633	17.647200
3080.784183	17.498400
3065.492317	18.434800
3074.249533	18.012900
3071.896317	18.182800
3071.631383	18.267300
3079.046000	17.856500
3079.762100	17.884400
3083.069950	17.709800
3085.167950	17.599700
3079.770367	17.932000
3075.210183	18.310500
3076.386417	18.346600
3081.331700	18.077900
3089.074717	17.690800
3086.793017	17.805100
3086.105800	17.858900
3091.570700	17.537300
3097.408317	17.391400
3090.727333	17.790000
3087.951400	17.975000
3091.468550	17.774300
3088.506350	18.120200
3088.875150	18.155900
3088.154967	18.291400
3090.724733	18.154800
3088.156017	18.335500
3086.133017	18.483100
3094.491317	18.162400
3097.001333	18.027000
3094.659933	18.175500
3097.190117	18.020800
3104.783750	17.645300
3098.009067	18.179800
3103.654900	17.866100
3109.889617	17.525200
3102.755650	17.976200
3111.257800	17.489300
3114.556333	17.324700
3109.464733	17.769600
3098.401750	18.459800
3101.833417	18.346000
3106.644600	18.080000
3108.441883	17.982900
3107.590483	18.026100
3102.697250	18.403100
3102.887383	18.420900
3099.796417	18.631300
3112.236367	17.888800
3108.789017	18.247000
3117.147417	17.807800
3112.230467	18.160900
3107.446133	18.479400
3116.016867	18.010300
3114.071367	18.115900
3120.816983	17.740200
3118.932117	17.847700
3111.125717	18.487600
3112.519217	18.478900
3116.781000	18.262100
3120.550367	18.054700
3115.924750	18.363500
3114.972483	18.420600
3113.685333	18.497100
3113.711217	18.512200
3110.012000	18.927800
3120.957367	18.475000
3122.769033	18.370500
3130.585100	17.919800
3127.294467	18.141400
3125.045017	18.298000
3123.747917	18.374500
3127.854467	18.127600
3129.842183	18.023700
3131.115117	18.197200
3128.193283	18.375000
3122.664200	18.729200
3119.647100	18.965600
3130.714067	18.448300
3129.640500	18.548300
3133.858683	18.330300
3125.693350	18.828500
3131.460300	18.496400
3139.820033	18.012300
3138.305283	18.268800
3133.504333	18.604800
3134.375050	18.567800
3131.414667	18.770800
3126.999333	19.048800
3135.419667	18.543700
3139.251167	18.300100
3143.458817	18.075100
3140.765200	18.439700
3142.530867	18.480400
3142.024917	18.538600
3151.511583	17.963100
3143.240233	18.451800
3146.296617	18.290500
3149.142717	18.132400
3141.139150	18.628100
3149.567533	18.211200
3148.699100	18.575300
3148.280933	18.622200
3152.176917	18.395200
3153.891050	18.299300
3157.168400	18.170300
3154.100517	18.374800
3157.384833	18.178200
3158.482033	18.144900
3157.287083	18.216300
3157.925317	18.208900
3162.537450	18.121400
3160.169433	18.299700
3158.473600	18.400700
3156.111883	18.567900
3158.105700	18.443900
3161.830833	18.228000
3156.679750	18.540800
3162.169200	18.218600
3175.254217	17.729200
3172.364250	17.957900
3161.038433	18.683400
3164.904850	18.479900
3163.487583	18.606000
3171.316200	18.165200
3161.640567	18.791800
3167.634267	18.436900
3168.312100	18.405200
3172.618683	18.178200
3168.866833	18.502500
3169.035817	18.629200
3177.933950	18.132500
3178.816483	18.076500
3180.381767	17.995300
3176.342983	18.240300
3178.110883	18.124800
3178.092117	18.130600
3178.823250	18.131000
3181.101667	18.321700
3180.280517	18.392800
3183.245033	18.216300
3182.596367	18.286600
3188.447983	17.946900
3181.189083	18.391500
3182.381017	18.531100
3176.285433	18.945900
3183.251500	18.570500
3179.705017	18.798400
3182.858300	18.657200
3188.200033	18.343200
3191.671133	18.132300
3192.497650	18.086900
3196.556883	18.063600
3194.699067	18.282400
3183.712267	18.979300
3191.333233	18.526200
3194.429500	18.334700
3194.137633	18.384900
3189.875867	18.678700
3196.597283	18.302400
3193.698367	18.538300
3192.278317	18.752500
3195.966317	18.559300
3191.594917	18.854800
3192.811067	18.788500
3191.669467	18.889900
3192.592967	18.846700
3193.537017	18.834400
3191.046317	19.019800
3197.904050	18.911300
3201.723533	18.743700
3190.611050	19.454000
3202.994000	18.750200
3204.048300	18.719900
3204.389200	18.725000
3208.672417	18.578500
3207.581317	18.662800
3206.211183	18.780000
3205.576117	18.834100
3212.907700	18.512300
3216.872150	18.340100
3215.375217	18.458800
3216.016250	18.428600
3214.722817	18.518200
3213.731167	18.592000
3212.692667	18.801100
3214.188550	18.839000
3214.913200	18.818000
3219.656100	18.554600
3219.318300	18.584000
3217.145250	18.722900
3226.630417	18.155200
3220.913050	18.523700
3220.086400	18.651800
3222.863700	18.740000
3218.092267	19.046200
3219.655133	18.973500
3218.037867	19.087000
3217.826783	19.114200
3226.549100	18.595100
3224.904417	18.706600
3223.952850	18.785900
3211.804033	19.532100
3222.314767	18.909400
3227.617383	18.899100
