#Y dist(nm)	Y force(pN)
3408.759483	20.175900
3420.255617	19.556200
3418.242633	19.756200
3412.871783	20.099700
3420.388383	19.705500
3420.436467	19.717000
3421.034800	19.709000
3412.963383	20.207100
3421.957850	19.865000
3421.447117	19.990300
3420.105883	20.091300
3430.592400	19.479500
3427.239433	19.691100
3429.192100	19.596200
3431.351917	19.482400
3438.756583	19.047000
3432.155583	19.452300
3429.728483	19.612800
3434.930417	19.487200
3438.835817	19.476400
3441.060650	19.359800
3438.949050	19.493300
3440.720883	19.416900
3430.071817	20.067100
3430.391650	20.081300
3435.400100	19.786400
3437.516667	19.742800
3436.690100	20.053400
3440.045333	19.902600
3439.935867	19.928200
3442.595150	19.788800
3440.805633	19.900800
3440.283450	19.937300
3449.203867	19.429600
3440.417800	19.963400
3449.227650	19.820600
3459.072450	19.249400
3459.166667	19.245700
3453.642933	19.582200
3455.686767	19.594300
3458.162050	19.493900
3450.214217	20.029600
3453.904967	19.810300
3454.003450	19.805600
3451.490283	19.968600
3450.788367	20.118100
3453.223517	20.018200
3456.436633	19.843800
3459.666150	19.674500
3460.007067	19.706200
3456.882283	19.889400
3463.601917	19.508800
3462.998817	19.553500
3464.314167	19.648900
3457.513100	20.269400
3466.347300	19.774100
3465.126583	19.860900
3465.131717	19.891300
3457.998917	20.346100
3460.617933	20.214000
3460.445017	20.235400
3457.679267	20.427100
3468.144850	20.144600
3470.039833	20.055900
3471.249667	19.991200
3470.509817	20.074900
3472.515417	20.116000
3476.669700	19.884500
3477.441650	19.846100
3479.816200	19.702400
3481.238533	19.627200
3473.501650	20.086100
3482.066700	19.771100
3481.779750	19.848800
3481.818317	19.851700
3477.520633	20.114700
3474.850683	20.318100
3481.127433	19.930500
3485.002217	19.712800
3477.927100	20.139800
3488.858683	19.598700
3482.384833	20.219400
3489.357667	19.803400
3487.339800	19.945700
3488.956133	19.895700
3483.511133	20.368800
3492.715733	19.846800
3492.696633	19.881600
3486.014167	20.308300
3492.751300	19.933700
3488.440483	20.286600
3489.481150	20.314400
3491.667550	20.220200
3498.421583	19.812000
3497.355133	19.896600
3484.121417	20.780800
3491.549417	20.380300
3498.695233	19.992900
3499.893117	19.938400
3504.674233	19.678200
3500.040333	19.983000
3498.174150	20.131400
3498.662550	20.100200
3503.354000	19.966700
3504.766317	19.919500
3513.472833	19.426500
3512.983117	19.463200
3506.694100	19.895000
3503.856433	20.211900
3500.218783	20.443200
3513.539983	19.711200
3515.440550	19.595600
3501.828750	20.428700
3506.068867	20.213200
3509.371783	20.190300
3514.712533	19.911300
3503.545800	20.648600
3503.093233	20.724600
3509.255567	20.406100
3513.706000	20.147900
3522.478117	19.565800
3511.546667	20.223700
3515.137183	20.031600
3507.875317	20.457100
3515.188017	20.012200
3516.108867	19.986400
3521.603783	19.637100
3523.099617	19.511500
3508.003400	20.087300
3513.107833	19.782600
3512.713200	19.813700
3504.291833	20.310300
3515.011983	19.592700
3506.636917	20.029000
3516.861983	19.426500
3506.869033	20.024400
3504.789033	20.162400
3510.380550	19.861100
3501.481583	20.327700
3506.581950	19.886900
3502.806450	20.090600
3507.832483	19.762800
3512.383967	19.487800
3508.843383	19.680900
3505.603733	19.855800
3503.004550	20.043500
3501.695133	20.099100
3503.550117	19.812700
3499.936283	20.022000
3502.716400	19.856600
3508.057767	19.533100
3510.872433	19.360500
3503.462400	19.806200
3506.666050	19.626800
3504.569783	19.766100
3518.817617	18.550600
3504.567533	19.381800
3504.591483	19.366800
3505.957317	19.271500
3497.283533	19.684500
3501.942900	19.337300
3502.464467	19.311100
3495.165617	19.747600
3494.847067	19.765600
3499.962817	19.474300
3494.922000	19.750700
3490.779917	19.826800
3490.635333	19.833600
3496.202933	19.505100
3487.300767	20.051800
3504.464817	19.024600
3503.287917	19.096000
3501.915367	19.176700
3497.776717	19.381300
3494.675117	19.321000
3498.918900	19.045100
3492.728583	19.413600
3486.662650	19.783100
3488.628983	19.657200
3486.583700	19.808000
3486.364283	19.847400
3488.985983	19.699200
3493.478850	19.139000
3487.719950	19.443500
3487.538983	19.476300
3489.777050	19.358900
3489.996200	19.299800
3488.470067	19.353700
3475.334033	20.125800
3482.824650	19.687400
3486.029683	19.518300
3499.540400	18.687500
3486.024017	19.404100
3481.194933	19.564200
3481.506933	19.527600
3480.081983	19.606800
3477.409317	19.792000
3473.236733	20.055900
3481.787800	19.581200
3479.322867	19.706200
3479.929700	19.650800
3476.101917	19.620100
3487.530300	18.942200
3483.503983	19.183500
3476.387233	19.613700
3481.764050	19.176500
3472.681000	19.692500
3485.526717	18.933400
3475.588817	19.524100
3479.917867	19.277800
3482.158283	19.131300
3471.460033	19.678200
3472.157117	19.629100
3475.365383	19.423500
3478.663633	19.210800
3478.203183	19.200900
3472.982967	19.522000
3464.712967	20.031400
3478.427233	19.203600
3471.759167	19.430500
3472.498433	19.225800
3471.609917	19.261900
3465.564500	19.620800
3463.403500	19.762100
3466.586833	19.575600
3463.525433	19.759500
3464.071183	19.728900
3462.524283	19.735500
3460.212283	19.650300
3455.946917	19.900900
3454.446900	20.009600
3456.546850	19.876700
3459.463850	19.609700
3462.875667	19.415200
3459.050383	19.695300
3456.612033	19.833000
3457.559700	19.787600
3457.527267	19.797100
3456.362100	19.764800
3455.819067	19.735900
3457.980133	19.622700
3459.372067	19.516300
3460.431400	19.428200
3462.484350	19.280300
3453.248333	19.819500
3460.262017	19.403800
3455.538967	19.445200
3455.274717	19.357600
3448.505783	19.730700
3453.388400	19.471100
3461.979017	18.937300
3458.535217	19.117300
3456.026100	19.253000
3452.836083	19.470600
3451.654700	19.447400
3447.485383	19.446900
3445.881100	19.546100
3438.206317	20.046100
3440.017133	19.972800
3448.348367	19.493800
3448.820267	19.456300
3450.205100	19.368200
3447.341900	19.526900
3453.471300	19.019300
3447.272233	19.354500
3443.195667	19.583200
3450.026900	19.163300
3439.503083	19.618800
3445.890617	19.237600
3453.199983	18.765600
3448.676200	19.029500
3441.753783	19.296300
3434.221950	19.726700
3448.238700	18.860000
3442.694267	19.214200
3443.009917	19.177300
3434.680300	19.673600
3445.351633	18.894300
3436.806350	19.337000
3434.251717	19.488700
3442.173717	19.003600
3447.516817	18.690400
3442.429433	18.981000
3445.356817	18.816100
3447.404000	18.672800
3445.948283	18.695700
3438.121150	19.058000
3437.140867	19.087300
3431.255867	19.432000
3429.392650	19.538900
3430.170217	19.481500
3433.121950	19.310300
3430.395117	19.454200
3431.408200	19.387100
3436.970267	18.900100
3430.098867	19.287700
3427.064417	19.459600
3423.487500	19.689500
3433.389233	18.939300
3433.062067	18.887500
3428.883783	19.099500
3425.748867	19.286800
3427.451533	19.193100
3428.423517	19.117900
3427.624400	18.936200
3422.733500	19.195700
3418.630367	19.391500
3423.170050	19.082600
3422.337433	19.111800
3424.389633	18.961800
3424.710967	18.936100
3429.444950	18.632000
3429.278300	18.594500
3431.620017	18.259000
3424.433850	18.661400
3413.226367	19.312900
3424.535600	18.636500
3427.427717	18.434800
3426.089800	18.527600
3423.114917	18.703600
3421.332083	18.768900
3410.123217	19.154800
3408.146217	19.270600
3417.576300	18.653000
3410.141167	19.082500
3402.613267	19.509700
3407.841433	19.194300
3411.062383	18.984600
3416.297767	18.679600
3414.668283	18.756600
3412.484517	18.907900
3409.247000	18.925700
3412.616350	18.663800
3406.262083	19.004400
3409.711033	18.797100
3417.828750	18.311000
3407.355083	18.940200
3411.943633	18.690900
3414.125367	18.551200
3402.447150	19.176200
3398.874233	19.346700
3413.130983	18.474300
3404.021800	18.999500
3401.701350	19.121600
3402.186533	19.083600
3400.550850	19.192700
3405.377483	18.903900
3399.653117	19.157500
3391.673233	19.395000
3398.335217	18.979900
3402.192750	18.704000
3402.180050	18.685400
3396.409100	19.040300
3400.921633	18.773100
3398.956900	18.892400
3398.883083	18.875700
3408.620000	18.304700
3403.363133	18.625500
3404.064833	18.326400
3391.938317	18.989200
3391.807283	19.000200
3394.392933	18.848100
3389.174567	19.157200
3396.405800	18.725900
3394.712000	18.826100
3390.196550	19.104500
3394.914750	18.742700
3394.534933	18.734100
3395.113533	18.683100
3391.330700	18.913100
3390.946133	18.925800
3395.098667	18.652300
3393.693750	18.733400
3391.044733	18.885300
3385.604900	18.912500
3388.792417	18.681100
3394.232000	18.332600
3391.086950	18.513800
3393.425117	18.346000
3383.147067	18.805600
3384.454567	18.713800
3393.560583	18.173700
3393.846667	18.143800
3392.101267	18.231700
3389.507567	18.384700
3382.997550	18.562100
3377.233617	18.881800
3382.076783	18.582900
3379.504617	18.732700
3384.656083	18.488400
3382.198450	18.640400
3389.080400	18.255800
3390.192033	18.169500
3382.145733	18.402900
3378.612517	18.529900
3369.962850	19.033400
3370.421767	19.006900
3370.534517	18.996400
3377.517650	18.609800
3376.698033	18.635700
3376.756217	18.633400
3376.209767	18.356500
3374.869133	18.412200
3370.179767	18.669700
3374.733933	18.412200
3372.109250	18.525200
3365.142600	18.852500
3369.282467	18.601000
3372.206967	18.423700
3369.658433	18.557400
3367.610317	18.537700
3366.884800	18.573500
3365.528100	18.657200
3362.584183	18.831000
3370.098817	18.220900
3358.880283	18.846900
3365.950033	18.419400
3370.914867	18.133900
3366.792517	18.380500
3368.600217	18.270100
3372.114867	17.978800
3373.750667	17.866600
3374.297700	17.808200
3363.146067	18.464200
3357.870100	18.728900
3357.456233	18.633900
3357.750383	18.607500
3362.294217	18.326200
3354.526933	18.791400
3354.366483	18.818100
3357.801867	18.590800
3363.818867	18.228400
3357.729833	18.602700
3356.995500	18.655100
3359.220617	18.498100
3352.034533	18.774300
3355.638967	18.537400
3354.308583	18.584400
3351.958517	18.740800
3357.890233	18.330600
3356.664817	18.376600
3351.287167	18.609400
3363.313633	17.886300
3357.253383	18.212100
3357.527350	18.195200
3353.028033	18.277800
3360.578183	17.814300
3346.981783	18.603000
3349.808100	18.443900
3361.344600	17.611700
3353.219217	18.030700
3350.963817	18.123100
3346.461917	18.392200
3346.832933	18.383100
3344.945517	18.499300
3339.220833	18.814800
3340.145517	18.717700
3348.850633	18.163500
3345.791667	18.296500
3352.370833	17.870700
3335.387933	18.868500
3345.046400	18.272600
3348.026200	17.928500
3339.541517	18.418000
3335.409783	18.663000
3336.734633	18.582000
3336.922000	18.432200
3334.839050	18.471200
3342.422850	17.947400
3342.404350	17.915300
3346.182467	17.672500
3335.734600	18.305300
3330.611417	18.487600
3331.263167	18.428500
3342.264500	17.713100
3335.841633	18.076200
3332.560750	18.255500
3328.639433	18.490200
3343.541967	17.422900
3334.068283	17.985000
3328.313933	18.313800
3337.337417	17.764900
3333.098367	17.987800
3338.582167	17.587000
3335.058783	17.781300
3328.604883	18.147600
3330.271767	18.056200
3326.071217	18.324100
3331.861433	17.982300
3324.690550	18.270500
3317.022117	18.681700
3329.016950	17.927900
3328.782950	17.925200
3329.268567	17.887900
3323.508500	18.229400
3319.622983	18.359100
3317.296267	18.487000
3317.817600	18.433400
3327.559167	17.818000
3325.632117	17.894200
3323.990883	17.963400
3316.696133	18.328800
3317.811900	18.206300
3323.570617	17.839000
3319.859067	18.062800
3312.284450	18.521900
3317.203967	18.225400
3317.162350	18.122000
3308.354683	18.529200
3314.697167	18.165400
3307.203283	18.606000
3314.419083	18.159600
3305.940200	18.566900
3312.835783	18.164400
3308.146467	18.388000
3318.171483	17.802000
3313.497517	18.091600
3320.630167	17.674600
3310.770683	18.098400
3315.256217	17.817100
3317.760300	17.664200
3307.262850	18.298400
3310.634117	17.965900
3311.535800	17.854100
3311.854267	17.766400
3308.489750	17.969000
3305.716467	18.113500
3303.992850	18.209000
3306.234733	18.013800
3298.277117	18.466900
3298.908067	18.416800
3299.346433	18.380100
3304.586017	18.058300
3301.470467	18.247300
3314.006550	17.339000
3308.203183	17.656500
3305.447450	17.799800
3304.144817	17.875900
3304.384633	17.844000
3297.750700	18.081800
3299.092067	17.989300
3302.142833	17.771700
3297.287617	18.074800
3305.440600	17.573900
3303.259167	17.670400
3301.026033	17.658900
3303.087683	17.487900
3294.549500	17.957900
3300.425433	17.595600
3304.199450	17.356400
3302.029067	17.462200
3293.135733	17.922900
3291.301650	18.014900
3290.662217	18.031300
3297.374383	17.628600
3298.358717	17.425900
3289.796883	17.877600
3292.878767	17.664100
3294.725483	17.528400
3292.535917	17.648800
3290.502800	17.774300
3294.493417	17.359900
3282.090567	18.106000
3286.831533	17.819100
3290.076950	17.622200
3289.502400	17.624600
3285.008067	17.757400
3288.412050	17.551400
3287.841867	17.524000
3284.717033	17.706900
3290.551617	17.321500
3281.220233	17.862600
3283.183217	17.606500
3283.964850	17.559200
3278.819350	17.804000
3274.367467	18.070000
3280.414567	17.729200
3283.293367	17.545300
3278.462033	17.777100
3279.959483	17.660700
3273.135283	18.055800
3283.402800	17.414000
3283.296300	17.402600
3282.714750	17.438000
3274.808817	17.758600
3276.783567	17.618500
3275.388017	17.685100
3279.667250	17.420900
3279.785767	17.385700
3274.613467	17.534800
3269.365733	17.832000
3273.973783	17.520300
3272.847333	17.587500
3266.857817	17.960500
3264.261083	18.108000
3263.044183	18.027000
3266.056833	17.826000
3262.548550	17.999000
3265.837300	17.788400
3264.613317	17.846200
3271.040283	17.451600
3270.972683	17.302200
3264.707433	17.667600
3262.558400	17.755100
3258.200333	18.043800
3264.629067	17.587900
3265.134500	17.493200
3251.591983	18.246300
3260.478783	17.703000
3269.338000	17.155400
3265.627283	17.397000
3261.969033	17.538900
3257.805983	17.718600
3259.521800	17.605700
3263.241533	17.354700
3266.987083	17.103300
3256.613467	17.712700
3255.447200	17.783600
3263.122550	17.200700
3257.950200	17.497100
3260.776733	17.331600
3262.245567	17.219800
3260.235317	17.205700
3257.514517	17.321200
3242.183000	18.226100
3253.795083	17.529000
3252.691450	17.577800
3249.462233	17.775600
3243.148317	17.978800
3249.091283	17.631600
3254.542567	17.279500
3252.168967	17.441200
3253.508500	17.288000
3249.038317	17.497600
3248.967967	17.435500
3244.617133	17.687100
3243.598500	17.757800
3245.984517	17.606800
3248.434517	17.448700
3249.149300	17.372900
3238.998133	17.993100
3246.509983	17.533800
3243.229450	17.720300
3254.241467	17.064100
3248.986233	17.350200
3240.932900	17.696900
3238.769333	17.803800
3237.333567	17.881600
3238.229367	17.825500
3240.112100	17.651900
3242.328400	17.469200
3242.274717	17.359900
3253.291750	16.673900
3246.157450	17.092400
3245.394117	17.126500
3240.899533	17.274600
3237.770500	17.417600
3245.747800	16.879100
3241.280850	17.116700
3244.192967	16.914100
3241.286533	17.100300
3234.930283	17.415000
3231.947917	17.503900
3233.311283	17.344200
3236.761167	17.154100
3234.454567	17.290000
3236.151333	17.170500
3233.806583	17.236500
3236.289950	16.992800
3237.753833	16.890000
3228.925150	17.388800
3242.495217	16.567600
3233.624667	17.080600
3235.750017	16.939300
3233.994200	16.861100
3229.892883	17.096100
3225.580567	17.341300
3226.679600	17.296100
3229.263750	16.993400
3232.516867	16.775500
3230.043533	16.863000
3228.904900	16.935500
3233.501200	16.636100
3233.674017	16.638100
3224.024450	17.121800
3216.379500	17.507300
3213.730900	17.611700
3219.563467	17.294800
3222.487083	17.139600
3219.648533	17.308800
3223.529283	17.053800
3220.679833	17.170500
3220.275317	17.207800
3216.941367	17.410300
3217.099917	17.375200
3218.924133	17.106900
3208.950317	17.687500
3212.579317	17.432500
3205.427833	17.848800
3214.782133	17.293500
3205.856000	17.824700
3212.693283	17.283600
3211.777933	17.322000
3214.242817	17.107000
3208.820700	17.425100
3208.266267	17.461900
3214.769150	17.083700
3209.598250	17.313500
3204.018850	17.639900
3216.448383	16.845900
3218.389400	16.710800
3213.574533	16.864500
3212.516483	16.899600
3205.850450	17.244500
3211.333833	16.894500
3207.494317	17.129200
3212.959067	16.775800
3196.284183	17.685900
3200.624817	17.349400
3210.945667	16.699900
3213.353967	16.517500
3204.342933	17.056500
3207.330450	16.851800
3209.732850	16.676600
3202.395050	16.997300
3206.286733	16.722300
3197.168117	17.267800
3198.076583	17.169000
3202.739433	16.775100
3211.446700	16.244000
3197.971567	16.979200
3199.478950	16.897100
3196.208867	17.101600
3191.714533	17.365200
3200.786083	16.737300
3193.001400	17.185400
3184.525600	17.650700
3194.588117	17.058400
3201.841833	16.615800
3200.209917	16.679800
3204.561333	16.266900
3197.718083	16.650600
3185.135467	17.412400
3194.567767	16.815700
3197.588200	16.521500
3198.219450	16.430900
3198.587000	16.367600
3188.703883	16.926900
3188.769167	16.956100
3189.263150	16.904900
3185.283367	17.065300
3180.477633	17.247000
3187.653017	16.817500
3189.731600	16.669100
3190.936000	16.578800
3195.379983	16.291200
3189.935183	16.594200
3186.030233	16.763100
3187.279183	16.678800
3189.451300	16.555400
3182.727600	16.931900
3184.913417	16.741600
3178.889817	17.086300
3177.599283	17.059200
3182.942667	16.749400
3179.521250	16.950200
3186.650417	16.513000
3188.618983	16.251000
3182.227700	16.599800
3179.157383	16.817100
3172.355517	17.221300
3173.786383	17.054700
3177.189650	16.775300
3177.928750	16.718300
3178.230550	16.670900
3172.196717	17.047000
3169.342100	17.235500
3172.641150	17.028800
3174.244433	16.911300
3178.688150	16.620800
3173.610050	16.759100
3172.905567	16.783000
3179.230000	16.383500
3178.008233	16.448100
3169.656200	16.820900
3160.837317	17.309200
3158.142283	17.394900
3164.220467	17.033500
3166.832367	16.873900
3167.880667	16.814500
3170.950833	16.502400
3171.827933	16.389000
3165.287467	16.720000
3167.933500	16.546700
3161.816633	16.908900
3156.172767	17.245900
3163.277850	16.795400
3161.189517	16.822900
3157.813033	17.006100
3154.880583	17.181600
3156.590933	17.056500
3157.696117	16.963900
3167.433483	16.359000
3153.367750	17.093300
3159.733133	16.721400
3156.569967	16.915000
3150.512400	17.275100
3155.899283	16.801500
3154.743000	16.819700
3148.371700	17.154800
3152.884683	16.857900
3156.952600	16.598900
3153.828250	16.782200
3153.104250	16.639100
3149.672567	16.812400
3145.762867	17.036500
3147.532650	16.944500
3149.464417	16.700500
3151.092017	16.554700
3148.091400	16.657100
3152.919850	16.397300
3154.005267	16.317700
3137.161033	17.334300
3145.538017	16.783000
3139.556600	17.060300
3140.435467	17.002600
3140.725833	16.978800
3132.883267	17.453500
3141.037767	16.936000
3146.176917	16.609900
3144.418833	16.658100
3138.532183	17.020800
3145.975167	16.567900
3138.854367	16.970200
3147.406600	16.298000
3137.849200	16.813100
3144.001650	16.370900
3142.251550	16.460000
3139.405950	16.632800
3142.046250	16.458500
3142.929433	16.227000
3140.198550	16.364600
3135.167817	16.641400
3139.784733	16.367100
3134.403267	16.554700
3144.494400	15.903800
3162.817000	14.726900
3143.357533	15.879300
3131.194433	16.612500
3127.348633	16.843800
3126.588300	16.861700
3125.199050	16.861700
3128.118933	16.701000
3131.833533	16.476000
3136.480167	16.167100
3123.660067	16.787800
3133.240300	16.224800
3130.021950	16.376300
3131.949367	16.244800
3129.907950	16.324100
3131.592733	16.219200
3120.446717	16.890400
3122.703683	16.746300
3121.210717	16.701700
3126.260367	16.371100
3124.467667	16.464400
3120.662867	16.690000
3118.687100	16.695800
3113.949150	16.939700
3122.148467	16.449100
3118.402717	16.674400
3130.313133	15.964800
3123.026433	16.410900
3116.285717	16.702600
3113.240917	16.828000
3115.498017	16.662400
3123.278833	16.173300
3114.224633	16.697100
3113.895633	16.721400
3116.804533	16.503300
3110.997867	16.712800
3121.202983	16.086900
3113.510517	16.532800
3113.424633	16.494900
3108.786350	16.676900
3113.065717	16.398400
3101.309133	17.037900
3108.590583	16.614300
3108.762550	16.608500
3111.555633	16.434000
3116.747100	16.078100
3116.125317	16.090000
3101.676100	16.882100
3116.847483	15.944700
3111.266017	16.270300
3108.854500	16.394900
3110.254483	16.194000
3106.472083	16.371900
3110.577817	16.105300
3104.090150	16.493900
3113.095100	15.878000
3101.891300	16.503500
3088.837633	17.181600
3105.050783	16.193700
3100.050017	16.483000
3104.595217	16.207300
3102.534217	16.235800
3105.361867	15.966700
3097.714167	16.417900
3098.200400	16.376900
3106.610633	15.860700
3099.255867	16.255300
3104.816033	15.915300
3100.875200	16.093100
3102.574017	15.986500
3103.444617	15.869200
3094.588200	16.379900
3102.587700	15.908600
3099.961767	16.050700
3096.611767	16.130500
3091.168450	16.466300
3100.700783	15.899700
3089.297867	16.578100
3097.747667	15.940000
3087.307583	16.518300
3101.368600	15.580100
3086.429450	16.459700
3081.115017	16.783000
3082.469550	16.711400
3078.838150	16.860500
3081.761250	16.625000
3086.501983	16.320000
3091.357083	16.024800
3081.150117	16.612300
3086.079567	16.266100
3082.766783	16.416600
3079.539333	16.467600
3078.773917	16.489900
3076.406967	16.630900
3081.719633	16.254000
3079.422417	16.277500
3082.148750	16.095500
3083.070250	16.009400
3078.044567	16.315000
3077.629783	16.339800
3082.368500	16.028600
3077.075850	16.211300
3075.520500	16.287500
3085.341133	15.660600
3080.488067	15.956200
3076.881800	16.155800
3076.955967	16.143100
3074.356400	16.129100
3074.895233	16.112700
3083.207017	15.616000
3073.766450	16.168700
3071.243833	16.229400
3075.974500	15.855200
3077.363667	15.738400
3069.688200	16.179200
3064.792417	16.484800
3066.090333	16.416900
3077.410533	15.682500
3070.062650	15.989000
3072.154867	15.835600
3069.206717	16.012000
3072.327617	15.793900
3069.186433	15.922800
3061.076067	16.398100
3069.987450	15.833600
3068.626500	15.888500
3069.995150	15.782900
3062.012900	16.260200
3066.398383	15.858600
3071.029667	15.522100
3056.345833	16.349400
3061.825967	16.045000
3050.580850	16.738400
3055.129017	16.455700
3054.485350	16.353800
3059.463600	16.019600
3059.528100	15.985700
3053.402750	16.309100
3049.537850	16.526000
3051.485333	16.420200
3057.502350	15.980900
3055.506467	15.994300
3052.252283	16.178100
3055.974200	15.949700
3044.988867	16.570000
3049.646917	16.235800
3047.693000	16.340300
3051.484067	16.116400
3053.320483	15.969300
3042.928633	16.437900
3035.379483	16.896000
3049.659033	16.003200
3049.075083	16.026900
3048.710933	15.963300
3041.882167	16.379800
3041.749700	16.394900
3054.989367	15.575200
3044.435250	16.026200
3041.294867	16.189600
3050.016500	15.671000
3044.919900	15.976100
3043.953150	15.898100
3046.271800	15.724100
3031.302983	16.541700
3039.382200	16.069100
3030.998417	16.489300
3042.369083	15.853500
3044.474217	15.669400
3038.352033	15.999900
3041.200183	15.794100
3038.866100	15.916400
3039.412683	15.861300
3033.585333	16.205400
3036.302683	16.032600
3036.508717	15.999700
3037.550600	15.887000
3032.739883	16.055700
3025.952967	16.423300
3028.597767	16.172800
3035.318600	15.766400
3029.517783	16.062000
3021.864083	16.507800
3027.102067	16.185100
3029.731267	16.050100
3032.898717	15.780400
3033.956567	15.712300
3035.841367	15.563500
3033.825717	15.687100
3032.243600	15.683600
3037.003833	15.306000
3034.646050	15.393500
3030.556267	15.613900
3022.951750	16.069700
3032.192750	15.505700
3024.555033	15.889200
3015.944483	16.311600
3027.873867	15.542500
3034.343283	15.095100
3026.722100	15.546200
3029.812633	15.374400
3023.159567	15.719500
3022.836067	15.591700
3019.682533	15.770700
3017.323617	15.907600
3018.621217	15.836500
3014.908250	16.055000
3018.066450	15.845600
3013.645583	15.922800
3017.272333	15.691200
3016.283350	15.735500
3015.966133	15.747300
3010.689700	15.947300
3014.019950	15.685700
3021.656267	15.178000
3015.770100	15.543500
3005.379917	16.171900
3009.424467	15.916900
3010.524267	15.788500
3007.373567	15.869800
3002.334083	16.127400
3006.901517	15.816700
3009.415067	15.661300
3006.429367	15.828400
3010.929867	15.527200
3011.636833	15.371400
3000.190550	16.024700
3012.580533	15.280500
3006.131183	15.678900
3001.137600	15.833000
3001.751133	15.757800
3008.059800	15.375200
3012.028500	15.134000
2997.937533	15.954300
3008.181867	15.324100
3003.348333	15.459900
3006.235517	15.242500
3005.371667	15.238900
3005.865500	15.191600
2993.099517	15.948700
3005.257233	15.207000
3000.268533	15.318600
2994.587750	15.659900
2995.048433	15.629100
2992.256550	15.826400
2995.643667	15.488200
3000.123800	15.168800
2985.639683	15.985800
2991.616550	15.647000
3005.876900	14.821400
2996.922983	15.350400
2994.433700	15.446000
2984.982767	15.925900
2987.522583	15.777600
2982.797867	16.009000
2985.351100	15.857900
2990.519550	15.543200
2996.006600	15.205700
2991.346967	15.427900
2985.442633	15.772200
2995.240100	15.162800
2987.022133	15.642000
2988.543733	15.445200
2986.112183	15.548400
2980.188300	15.844100
2985.454250	15.543200
2988.295333	15.336000
2983.178217	15.635800
2980.913600	15.590600
2985.644283	15.327600
2981.998867	15.482200
2981.387717	15.531400
2985.314167	15.201100
2987.757083	14.970000
2984.161133	15.099300
2985.348050	15.027200
2976.127500	15.558500
2985.250800	14.995400
2981.734383	15.175800
2984.562417	14.954500
2978.884300	15.268700
2984.957967	14.890300
2979.621333	15.172800
2976.802600	15.315200
2980.373067	15.090100
2973.424833	15.353700
2967.474750	15.677000
2971.147800	15.377300
2967.892117	15.579400
2970.702300	15.389900
2977.650367	14.979700
2967.727817	15.400900
2970.053117	15.265600
2963.396533	15.654000
2966.593517	15.484300
2966.694917	15.351100
2967.433217	15.265300
2960.655617	15.605500
2961.471533	15.532500
2969.312733	15.031200
2969.666667	15.014800
2956.798817	15.679300
2961.225133	15.350100
2961.631467	15.283900
2959.896933	15.360300
2961.613567	15.248200
2956.756667	15.541900
2965.067467	15.024700
2952.777783	15.636300
2956.609467	15.396700
2969.550517	14.564800
2964.784183	14.857200
2962.292800	15.009500
2958.283233	15.249300
2952.502450	15.443300
2958.907383	15.039000
2968.882883	14.441100
2960.462550	14.924000
2961.538983	14.715600
2955.675617	15.027700
2947.925833	15.435000
2949.798117	15.311800
2965.477967	14.367700
2957.625567	14.816800
2958.588233	14.703000
2956.272483	14.807400
2949.773817	15.146500
2947.907300	15.242300
2949.379483	15.154200
2948.850900	15.182000
2950.258517	15.021400
2946.720067	15.150700
2944.215067	15.306100
2944.542300	15.256700
2945.434550	15.104600
2945.666817	15.026800
2945.333800	15.042500
2946.132283	14.936700
2946.863267	14.881000
2948.247583	14.788800
2934.303867	15.630700
2947.848600	14.780600
2946.193967	14.884300
2939.256583	15.299700
2940.835317	15.189100
2943.193117	14.861200
2931.019567	15.465100
2928.893400	15.539900
2936.746050	15.083000
2941.816100	14.768900
2938.301267	14.947900
2930.307050	15.430700
2938.946667	14.856700
2935.753583	15.019800
2940.742367	14.657500
2935.487050	14.944400
2926.679767	15.490600
2941.449783	14.534100
2934.484350	14.832500
2938.126983	14.589600
2938.142167	14.509300
2939.371050	14.422100
2935.333617	14.656300
2935.371233	14.637300
2928.289567	14.915800
2930.440000	14.790500
2927.836117	14.932600
2919.653483	15.412800
2927.791917	14.887600
2931.237750	14.648600
2917.303150	15.427700
2921.214733	15.208800
2922.432867	15.139600
2928.779767	14.757100
2929.148617	14.659600
2930.531967	14.548600
2919.367633	15.162300
2923.209067	14.890900
2926.650117	14.639800
2928.138000	14.535200
2925.841500	14.539700
2923.081517	14.630200
2920.524033	14.778600
2921.326867	14.712100
2928.599717	14.249200
2917.692683	14.745000
2916.359717	14.790700
2911.984400	15.018200
2907.802867	15.273100
2916.817017	14.745700
2921.759733	14.451600
2924.143300	14.204300
2913.033467	14.839900
2918.794600	14.393600
2921.611167	14.225500
2911.276517	14.819500
2903.200617	15.315100
2909.255400	14.779400
2913.106500	14.538800
2914.104100	14.475200
2914.555083	14.432100
2908.560767	14.746000
2908.723483	14.705400
2914.395400	14.302100
2901.873550	15.044900
2899.410500	15.202700
2906.616400	14.769500
2898.436983	15.109800
2896.691317	15.191800
2908.478850	14.454200
2906.010133	14.599800
2906.047400	14.505200
2906.164150	14.409800
2911.323933	14.075700
2898.064450	14.800400
2899.212633	14.721000
2893.955583	15.027900
2893.896233	15.018000
2892.697717	14.952100
2890.248183	15.105300
2893.884100	14.827700
2900.613350	14.404400
2892.212617	14.882200
2895.622133	14.692500
2897.340033	14.531400
2904.565400	14.072600
2899.258867	14.337100
2893.294533	14.675100
2893.834167	14.633800
2899.099067	14.312200
2899.304833	14.147400
2898.015700	14.179100
2891.451433	14.567700
2891.838083	14.532900
2887.541533	14.632500
2891.746617	14.377300
2893.348833	14.249700
2893.483900	14.245100
2886.523417	14.627800
2885.109667	14.550700
2888.709683	14.317800
2882.795867	14.625100
2883.598183	14.561400
2888.208150	14.264000
2888.083017	14.236300
2885.032300	14.422700
2893.608233	13.871100
2885.997500	14.234600
2883.329317	14.400100
2878.622600	14.617400
2886.062650	14.154800
2889.968917	13.921600
2888.336700	14.008400
2877.910750	14.435300
2878.828617	14.382400
2872.524967	14.761900
2871.823083	14.805000
2868.051383	14.919300
2868.281317	14.874400
2861.610167	15.241000
2883.403733	13.912800
2872.241267	14.559100
2866.616500	14.908400
2874.108150	14.406500
2872.217183	14.404200
2869.191083	14.555100
2872.123133	14.355600
2866.292517	14.698300
2875.413217	14.145100
2867.836317	14.580100
2867.376267	14.548600
2873.361950	14.153300
2871.748183	14.242800
2873.071550	14.173100
2861.903133	14.654700
2856.813017	14.944600
2859.225267	14.784100
2863.080383	14.552100
2857.314967	14.905300
2856.423467	14.991400
2863.739450	14.373800
2858.356617	14.634400
2867.107633	14.045100
2851.658867	14.954200
2863.530383	14.229300
2857.426117	14.590600
2851.857000	14.737400
2861.080217	14.192500
2856.551950	14.433200
2855.159600	14.554400
2856.130900	14.362700
2859.079417	14.102500
2852.736100	14.462600
2851.994900	14.492900
2853.639383	14.388300
2856.134233	14.245800
2854.553133	14.306400
2851.847183	14.307900
2847.651317	14.518000
2853.028667	14.163100
2847.464017	14.495500
2854.355667	14.067400
2855.329217	14.004400
2848.142517	14.285200
2855.033783	13.836900
2855.439000	13.793300
2847.809383	14.236200
2843.202700	14.396900
2846.086850	14.169500
2851.729083	13.752900
2851.855850	13.747400
2851.133933	13.772400
2845.143733	14.123100
2841.756017	14.197900
2829.539050	14.875100
2834.707217	14.557000
2833.214467	14.644900
2834.199317	14.607400
2828.734633	14.959800
2836.699217	14.425000
2838.543400	14.251400
2837.115900	14.342000
2837.884633	14.304900
2837.435700	14.316200
2830.763683	14.556300
2832.971850	14.386400
2837.124200	14.057300
2827.777200	14.606300
2829.911583	14.520300
2832.086483	14.364600
2826.881767	14.545300
2833.993033	14.094300
2827.940917	14.375500
2839.307550	13.690700
2835.546217	13.870000
2832.096200	14.073800
2834.551933	13.901700
2834.717483	13.860900
2836.456050	13.743500
2832.507683	13.945800
2825.230833	14.228700
2822.223433	14.368200
2827.935067	13.969600
2827.526650	13.947200
2825.394683	14.070000
2824.427900	14.129000
2826.541767	13.939300
2819.865683	14.212200
2821.071017	14.149300
2830.620067	13.563400
2827.837333	13.719000
2822.058033	13.917900
2821.715300	13.903100
2812.262683	14.451900
2830.966833	13.302300
2821.221233	13.865700
2822.623633	13.761900
2818.700200	13.874600
2801.297367	14.881300
2805.330217	14.605000
2811.287717	14.234800
2815.515233	13.954200
2809.140650	14.340800
2805.608167	14.449000
2808.458833	14.251200
2805.370433	14.391300
2809.203167	14.188300
2810.397783	14.100300
2812.936800	13.969700
2805.397633	14.239200
2806.283533	14.204400
2793.142000	14.985500
2808.079033	14.098200
2821.112483	13.143000
2812.089200	13.674500
2805.784883	14.036100
2811.024683	13.707300
2809.073083	13.752900
2798.273317	14.271400
2803.813483	13.909500
2805.594283	13.773000
2802.914233	13.925700
2797.121200	14.225300
2801.092250	13.968200
2804.293133	13.800900
2803.759700	13.803800
2803.296417	13.664800
2801.453033	13.764300
2795.208333	14.147400
2798.236900	13.963400
2796.361250	13.940900
2795.853067	13.931800
2799.436733	13.677900
2795.890500	13.870100
2791.010500	14.160500
2789.239900	14.266100
2794.560700	13.820600
2787.538850	14.192000
2785.336217	14.271700
2787.354867	14.147800
2787.852617	14.141500
2792.521900	13.847600
2793.332367	13.752100
2790.923983	13.783500
2785.144967	14.131600
2785.649917	14.101000
2795.065183	13.415700
2781.184117	14.184700
2781.875233	14.149200
2784.450933	13.935000
2776.465917	14.407000
2777.001100	14.372600
2774.158883	14.561400
2779.798917	14.188000
2776.861683	14.358300
2785.096717	13.667500
2783.668183	13.742400
2783.134233	13.734900
2785.187367	13.648000
2783.528600	13.623500
2776.946883	13.992600
2775.053250	14.047700
2772.843950	14.171000
2778.009900	13.853300
2774.422967	14.081200
2782.114767	13.552900
2776.158367	13.832200
2779.579967	13.609000
2770.419700	14.172200
2777.542050	13.690700
2769.898283	14.093400
2773.114600	13.886900
2764.855350	14.360600
2767.116600	14.200700
2766.422817	14.173600
2772.156483	13.804500
2771.621200	13.754000
2762.115450	14.336000
2770.687517	13.807000
2765.088133	14.115900
2761.073767	14.243800
2760.392250	14.243600
2772.921567	13.420900
2770.295783	13.555200
2762.626517	13.976200
2770.162700	13.529000
2764.291000	13.750100
2762.866983	13.792200
2763.732583	13.698900
2769.185867	13.367200
2752.871883	14.307300
2766.521483	13.490400
2758.896633	13.894200
2757.150600	13.985900
2758.666600	13.865900
2756.111550	13.977200
2760.263750	13.704800
2763.814650	13.474700
2760.340950	13.649300
2758.167250	13.614200
2756.384017	13.713400
2761.809733	13.386600
2755.679883	13.745100
2750.805933	13.910700
2751.398350	13.830800
2753.454017	13.654300
2753.505167	13.621300
2752.264400	13.674500
2748.037400	13.903100
2751.590750	13.556000
2749.171733	13.655700
2749.008317	13.636000
2751.841483	13.444500
2752.269783	13.390200
2750.574283	13.490400
2746.324067	13.715200
2742.321417	13.940800
2751.536067	13.385500
2745.535083	13.719300
2743.604967	13.794100
2742.053083	13.752000
2751.022050	13.182500
2746.965783	13.364100
2745.617800	13.439300
2746.763267	13.366300
2742.871217	13.589200
2741.986967	13.482100
2733.919767	13.968400
2736.464583	13.834200
2736.699533	13.803000
2732.006767	14.014900
2744.189033	13.256100
2732.731667	13.899700
2732.240367	13.916800
2737.584700	13.559600
2741.716333	13.292100
2733.637683	13.638000
2733.540133	13.566900
2722.777200	14.160500
2736.270500	13.346600
2732.124567	13.583500
2729.985733	13.708800
2732.264167	13.464100
2728.206317	13.621600
2726.062100	13.714700
2727.609917	13.605100
2726.339833	13.672200
2727.196517	13.624900
2723.201700	13.817300
2720.984000	13.797500
2722.845000	13.665200
2729.229317	13.251100
2724.691700	13.521500
2724.362067	13.384900
2724.972633	13.312200
2734.590917	12.702400
2727.537967	13.099300
2727.887433	13.059000
2725.209817	13.222000
2720.003200	13.390700
2722.110967	13.240300
2713.568517	13.671700
2730.862767	12.635500
2725.728883	12.923400
2721.293467	13.170100
2714.452000	13.505900
2712.966750	13.510100
2721.263967	13.027600
2720.316717	13.070800
2717.458567	13.159900
2718.520950	12.998600
2722.287433	12.739500
2716.976850	12.984200
2714.324600	13.133300
2708.486067	13.456900
2710.587067	13.274800
2709.813417	13.203400
2704.503067	13.522000
2688.075767	14.458000
2702.229383	13.623300
2706.288267	13.374400
2706.859400	13.329500
2706.066467	13.348600
2711.698350	12.975800
2709.994533	13.069500
2708.034767	13.183300
2705.041700	13.222700
2704.657850	13.184300
2700.992733	13.400700
2704.140583	13.227600
2702.254517	13.331200
2707.745650	13.000700
2697.294133	13.436700
2701.406083	13.151100
2694.544833	13.527600
2695.927800	13.463300
2696.138533	13.384200
2690.424817	13.701700
2694.856833	13.426200
2691.391417	13.584100
2692.787467	13.487200
2686.765700	13.802300
2688.323733	13.694100
2696.374483	13.219500
2699.224800	13.010300
2691.248983	13.323900
2694.108933	13.160400
2685.782617	13.642300
2698.988217	12.845200
2693.030367	13.140700
2681.701417	13.792000
2691.545483	13.161300
2684.563083	13.569000
2674.635500	14.121200
2692.527933	13.047900
2694.528217	12.787900
2691.280467	12.949900
2694.176117	12.660400
2692.852533	12.756600
2681.182217	13.449400
2684.292417	13.246000
2684.737500	13.153400
2678.408167	13.420300
2672.647133	13.749000
2682.231467	13.159000
2678.593950	13.341500
2673.368067	13.596700
2678.101217	13.302700
2680.025667	13.148200
2677.277583	13.285200
2677.744800	13.236500
2685.065917	12.770200
2680.120533	12.918000
2678.237233	13.003800
2686.346683	12.429600
2672.846500	13.212500
2670.625300	13.326500
2675.384067	13.039600
2666.536433	13.400700
2671.834733	13.075800
2675.318567	12.852700
2672.997167	12.997900
2666.136617	13.300300
2661.765583	13.521900
2663.359300	13.419200
2667.344567	13.165900
2661.362950	13.507100
2663.978650	13.350800
2662.798550	13.347500
2661.519217	13.285900
2662.053700	13.245200
2661.812783	13.239600
2667.942250	12.838700
2658.599350	13.264100
2656.531033	13.381200
2665.734183	12.797400
2664.878833	12.843600
2665.393533	12.744300
2663.043633	12.865500
2662.832017	12.866500
2660.920450	12.971900
2653.769867	13.218100
2657.217483	13.016400
2653.243317	13.255900
2661.260833	12.778800
2656.925767	12.833500
2658.928683	12.717300
2659.123183	12.726000
2655.776283	12.904500
2650.875333	13.182600
2651.008917	13.116100
2642.795583	13.608900
2644.187217	13.515400
2650.671533	13.107300
2657.410350	12.696500
2658.168850	12.573500
2650.459867	12.884500
2645.112333	13.177200
2640.405167	13.443700
2647.673633	12.997800
2634.614767	13.657000
2635.360567	13.604500
2636.486417	13.495000
2635.146483	13.575300
2651.452100	12.531500
2640.926233	13.164600
2648.400900	12.686600
2650.455267	12.547000
2636.167733	13.213800
2635.620683	13.232400
2638.419217	13.045600
2640.073217	12.943600
2638.117083	12.944700
2636.669900	12.956900
2623.850433	13.693200
2630.484150	13.289300
2626.077750	13.520600
2631.287517	13.246000
2633.278600	13.035800
2631.697450	13.057100
2634.043350	12.849200
2628.915333	13.164600
2632.331567	12.946600
2637.448833	12.627000
2636.886083	12.631800
2632.051083	12.763800
2630.600750	12.838700
2635.007917	12.574900
2629.840267	12.872800
2624.365933	13.036200
2626.134900	12.902600
2623.692867	12.996100
2618.695533	13.284900
2620.521050	13.208000
2619.197117	13.270300
2620.120500	13.074800
2621.262917	12.964000
2626.120417	12.611500
2624.299767	12.702400
2613.231400	13.373000
2617.462483	13.145400
2614.739900	13.184900
2617.340833	12.973800
2618.752700	12.895400
2620.245350	12.806600
2618.269867	12.866200
2619.521383	12.796200
2622.821033	12.541500
2611.202767	13.137400
2610.163367	13.187500
2615.130133	12.874800
2623.497650	12.365000
2623.240933	12.244500
2616.117617	12.615700
2615.747133	12.580500
2610.650167	12.880000
2613.305933	12.705000
2610.989617	12.832300
2610.719267	12.763000
2605.529917	13.074400
2599.354517	13.441600
2604.921400	13.100300
2610.286117	12.676600
2613.033983	12.504000
2602.138833	13.140000
2601.288333	13.157400
2599.906600	13.146500
2605.442833	12.793500
2606.738917	12.664900
2596.711000	13.245800
2598.905733	13.048500
2601.109050	12.902300
2594.847167	13.219600
2603.867717	12.677200
2593.402483	13.176300
2598.251850	12.849200
2604.545633	12.482100
2598.468850	12.830900
2598.794900	12.748400
2598.814017	12.682000
2590.264550	13.148600
2592.759567	12.977200
2590.400983	13.105500
2586.906950	13.313000
2592.687217	12.954100
2586.738833	13.163400
2586.705683	13.132500
2595.516467	12.531700
2597.440833	12.397500
2580.674033	13.405200
2591.337117	12.751600
2589.171017	12.830500
2587.739200	12.898400
2577.075550	13.516700
2583.349900	13.153400
2604.683717	11.791000
2593.362200	12.409400
2592.059367	12.356200
2586.972217	12.626500
2577.546200	13.172300
2587.170983	12.577200
2587.306600	12.417800
2591.631083	12.116700
2596.684917	11.726800
2593.716633	11.884200
2581.535567	12.574900
2577.190933	12.819900
2586.833883	12.125400
2575.357067	12.748900
2572.902767	12.882700
2582.098517	12.331000
2572.246267	12.882700
2565.320667	13.216900
2566.456017	13.158700
2571.723717	12.791500
2569.776483	12.891900
2574.312967	12.637300
2578.939900	12.334400
2572.464150	12.567800
2568.658833	12.777600
2580.182267	12.010000
2564.054667	12.962200
2566.397850	12.859700
2566.442700	12.846800
2562.975267	12.914800
2569.007783	12.516600
2557.843300	13.174400
2567.417567	12.587500
2569.707683	12.414300
2568.011550	12.470900
2569.452700	12.219800
2567.652883	12.320100
2559.037700	12.816500
2564.016033	12.515700
2561.025083	12.613200
2555.010800	12.877400
2562.853200	12.411500
2564.041867	12.314200
2559.125133	12.594300
2553.740400	12.750800
2549.826033	12.977400
2557.069600	12.501500
2552.673350	12.776600
2561.897017	12.264700
2561.453100	12.270800
2556.325067	12.508300
2556.658883	12.465600
2562.442700	11.957600
2549.857117	12.685300
2548.344333	12.742800
2549.847717	12.673900
2551.708000	12.435200
2556.076067	12.106900
2555.115233	12.110700
2546.210367	12.642700
2549.853850	12.413900
2546.600283	12.635400
2537.760450	13.097300
2549.660700	12.360800
2550.562033	12.269400
2551.876583	12.158700
2557.251583	11.819100
2550.810983	12.197100
2549.536883	12.198900
2542.338017	12.511900
2537.946150	12.761600
2544.879983	12.330000
2543.412217	12.387700
2543.674950	12.219200
2544.048767	12.174700
2542.303283	12.198900
2547.651917	11.879800
2541.974783	12.189300
2542.251917	12.124600
2536.906217	12.366700
2530.267383	12.762000
2532.033267	12.616000
2538.469483	12.198900
2540.256383	12.071100
2536.578550	12.276500
2530.833350	12.484700
2527.114950	12.685100
2527.171433	12.676200
2526.812517	12.716800
2533.795233	12.156900
2527.948833	12.416700
2528.140767	12.365200
2527.770217	12.357400
2526.945383	12.420600
2523.408450	12.608000
2532.761217	12.041500
2521.870483	12.582000
2528.934967	12.137200
2533.850950	11.803700
2533.575367	11.774800
2535.295017	11.670700
2521.164767	12.500800
2525.501017	12.081700
2524.242967	12.135100
2527.162667	11.959300
2531.261483	11.721900
2510.771683	12.793500
2520.570350	12.184400
2522.767733	12.025800
2523.368583	11.973300
2520.723717	12.112300
2513.161950	12.564200
2507.295367	12.899800
2509.513450	12.745400
2518.507833	12.177900
2515.339633	12.340200
2514.140633	12.411300
2510.715417	12.616600
2516.056567	12.291400
2518.042600	12.103700
2512.101950	12.431600
2518.677367	12.002800
2515.868433	12.147300
2521.378317	11.652100
2513.154600	12.117200
2506.246450	12.475100
2515.275433	11.914800
2513.705417	11.960200
2512.115817	12.056800
2511.798467	11.911900
2506.153833	12.198000
2501.975633	12.370200
2506.666133	12.054600
2500.096300	12.454100
2508.153183	11.952300
2501.372783	12.188400
2504.313450	11.996600
2509.634400	11.642900
2511.609900	11.542700
2511.066883	11.456700
2496.848717	12.204700
2496.085150	12.212000
2500.400350	11.902100
2498.915000	12.017900
2493.667683	12.332400
2498.774367	11.970700
2499.685150	11.791700
2508.129517	11.249500
2498.279667	11.796400
2500.035083	11.679600
2492.781317	12.094000
2497.568333	11.804100
2486.985317	12.374200
2490.345250	12.185300
2492.619567	12.052000
2504.806083	11.324700
2494.801400	11.783600
2488.166733	12.115500
2486.480267	12.142900
2485.621350	12.188900
2490.765983	11.881500
2485.439967	12.192700
2489.168650	11.864000
2487.017450	11.917400
2485.864117	12.010000
2481.371867	12.236200
2473.190667	12.704800
2488.862967	11.710000
2484.627117	11.950600
2481.356067	12.111100
2487.051450	11.742500
2483.197417	11.880700
2486.303600	11.694500
2489.659367	11.472700
2486.222750	11.657600
2473.941067	12.197500
2474.711867	12.138700
2476.986117	12.001600
2482.336300	11.653400
2479.164350	11.707700
2478.926933	11.679900
2472.261617	12.041500
2482.076083	11.428200
2471.907617	12.028900
2469.589617	12.133300
2475.555800	11.650400
2473.958467	11.680900
2469.381850	11.894600
2470.628583	11.820600
2468.729367	11.931400
2467.527167	12.003700
2462.780500	12.206900
2456.810650	12.505700
2472.633017	11.538700
2466.313700	11.877200
2464.690317	11.924500
2463.419450	11.890100
2465.193567	11.778400
2471.903750	11.329100
2463.548050	11.827100
2464.660583	11.751300
2461.234650	11.945300
2459.837100	11.888000
2460.258333	11.822100
2458.275800	11.886800
2460.904183	11.726100
2455.512150	12.047900
2461.728350	11.688800
2447.042283	12.438000
2452.670600	12.100400
2453.981667	12.031000
2464.211317	11.428900
2459.704400	11.552000
2461.611550	11.390600
2464.423133	11.160300
2460.702283	11.367900
2459.508733	11.420700
2460.852100	11.340200
2453.478533	11.679600
2453.237733	11.597400
2457.277000	11.359700
2455.101600	11.449700
2448.339950	11.841500
2450.012100	11.728700
2455.373567	11.421700
2452.217117	11.452900
2443.428133	11.951700
2452.848750	11.382500
2440.880533	12.106200
2440.220350	12.026600
2437.921133	12.106200
2449.953217	11.362300
2445.171100	11.652200
2438.189317	12.043300
2440.859783	11.863200
2436.166683	12.021300
2437.099983	11.922000
2443.590483	11.506500
2445.036683	11.405100
2445.766700	11.338700
2443.047817	11.482900
2447.821983	11.117700
2445.745300	11.112800
2434.557917	11.743600
2443.020367	11.203900
2441.098650	11.313500
2441.064800	11.296700
2437.105867	11.467600
2432.957733	11.589600
2428.668150	11.840300
2434.576150	11.481200
2435.030017	11.460700
2435.423283	11.310300
2431.907600	11.496800
2428.761600	11.632400
2421.668150	12.057200
2423.619317	11.962300
2427.693833	11.714700
2422.455183	11.866200
2430.205600	11.402300
2425.497600	11.674400
2430.461300	11.371400
2431.193500	11.270900
2433.555617	11.099500
2429.813267	11.228500
2428.795083	11.280300
2429.907283	11.188500
2427.353983	11.304600
2426.688100	11.295800
2424.383533	11.287500
2416.034500	11.746400
2422.358200	11.307200
2424.669133	11.171700
2418.231650	11.546900
2425.885583	11.080500
2416.883933	11.467200
2422.526817	11.120500
2417.110633	11.354400
2415.331567	11.465200
2404.487283	12.112500
2418.838917	11.270800
2419.677650	11.084300
2420.983217	10.954600
2408.126633	11.711700
2415.212550	11.284100
2407.938850	11.590400
2400.349250	12.021800
2407.358850	11.579900
2405.890167	11.687200
2411.233950	11.269700
2402.461300	11.704100
2403.506900	11.594300
2406.037450	11.448800
2406.375550	11.403200
2409.550383	11.170800
2405.219483	11.414400
2407.817900	11.243600
2400.456050	11.674400
2399.475017	11.593300
2403.406617	11.341300
2403.194567	11.299000
2404.354333	11.241300
2401.658967	11.248000
2396.993817	11.468500
2398.715317	11.279200
2396.524683	11.409000
2398.035100	11.324000
2390.023800	11.805200
2392.775683	11.536800
2390.017467	11.640400
2389.553550	11.634500
2389.575350	11.609300
2391.291317	11.534500
2392.470000	11.435900
2397.050833	11.166600
2389.291350	11.640800
2379.802850	12.151700
2382.158483	11.871600
2380.401267	11.977900
2389.639600	11.427800
2385.645800	11.652500
2388.007483	11.352000
2383.726533	11.591100
2387.991683	11.333400
2386.898883	11.399400
2386.419467	11.378200
2395.393967	10.812400
2385.338350	11.325200
2372.641300	12.098900
2375.534433	11.918700
2379.514233	11.675100
2378.109050	11.596700
2381.639867	11.394400
2387.079267	11.078500
2385.928150	11.108600
2376.821467	11.496700
2379.089300	11.311100
2366.186383	12.004800
2384.206533	10.906800
2364.949767	12.041500
2379.458850	11.190500
2381.515750	11.000000
2371.775100	11.458700
2367.343233	11.700600
2369.316467	11.540200
2380.965267	10.832200
2376.978200	11.062700
2370.561617	11.435500
2365.002900	11.696000
2367.719733	11.541000
2366.150750	11.591300
2370.066150	11.338700
2360.495567	11.847400
2365.570050	11.579000
2367.995850	11.282300
2370.357783	11.089500
2371.641600	11.012900
2371.832650	10.969400
2369.004150	10.967600
2366.718550	11.081300
2363.904333	11.223300
2365.637100	11.117600
2358.633400	11.326100
2366.361100	10.841900
2364.046017	10.913800
2359.450517	11.167000
2351.548700	11.621900
2357.829967	11.232700
2358.320300	11.186600
2351.967667	11.543200
2351.854350	11.515400
2354.651567	11.299300
2362.834450	10.808900
2358.569133	11.041500
2360.681950	10.870700
2354.086167	11.228500
2355.284950	11.131700
2358.769217	10.864000
2348.809167	11.430100
2355.466833	11.010300
2354.991550	11.026100
2348.160350	11.307200
2350.028000	11.158100
2338.581383	11.767500
2344.413633	11.428500
2345.168150	11.399900
2345.024083	11.405100
2334.108783	11.901600
2338.157383	11.658900
2348.847400	11.000900
2344.551750	11.250800
2341.216200	11.355800
2343.193217	11.146000
2340.679000	11.284100
2341.766750	11.165300
2331.364483	11.800200
2335.166433	11.569500
2342.238767	11.116000
2340.697950	11.069900
2345.477700	10.739900
2340.947233	10.969800
2343.531050	10.798400
2342.507950	10.820000
2341.193517	10.896100
2333.385383	11.225400
2344.975967	10.510900
2331.895400	11.197100
2332.264283	11.162400
2332.966400	11.129600
2340.348433	10.670400
2335.289350	10.890200
2338.218633	10.692000
2336.709967	10.770100
2331.609067	11.059600
2333.342417	10.863400
2332.809367	10.859200
2337.262533	10.530900
2332.783333	10.778400
2331.289500	10.841600
2336.303783	10.544100
2330.770800	10.838000
2322.486633	11.152800
2325.395667	10.942000
2315.282433	11.497800
2322.029367	11.083900
2325.042983	10.899300
2320.049583	11.179200
2320.268700	11.019800
2313.943017	11.372200
2316.538983	11.233800
2317.821400	11.156900
2313.836183	11.326500
2311.280133	11.488200
2313.100500	11.299700
2323.226917	10.690900
2325.789917	10.478500
2317.058883	11.018400
2316.046300	10.968500
2314.327617	10.993600
2325.154217	10.330600
2318.737567	10.680100
2319.170850	10.631300
2325.629800	10.214900
2317.393283	10.651200
2311.649850	10.871900
2308.559800	11.046500
2310.783183	10.895100
2307.916117	10.999000
2308.551883	10.845000
2307.586400	10.870400
2295.460383	11.533200
2296.253717	11.492500
2306.576633	10.879200
2308.001367	10.782700
2306.242650	10.722800
2300.763717	11.040400
2305.899700	10.715300
2304.187150	10.838900
2303.184033	10.753500
2309.575467	10.325200
2284.431983	11.802900
2301.783567	10.751800
2292.756467	11.309800
2297.416433	11.019000
2288.464250	11.463500
2287.813767	11.422600
2279.839383	11.884200
2288.227333	11.368200
2295.471700	10.920800
2292.133167	11.124700
2288.743367	11.260000
2286.943183	11.262600
2288.278317	11.145400
2295.576217	10.657600
2297.691133	10.519800
2284.816633	11.254800
2289.528217	10.991800
2284.314983	11.129400
2282.223617	11.229700
2281.564033	11.263200
2292.380183	10.611600
2291.852433	10.547700
2288.338550	10.719200
2270.033383	11.821200
2283.754867	10.969900
2284.324550	10.961000
2289.367800	10.625900
2283.354317	10.895200
2285.588200	10.698800
2278.479367	11.057800
2279.056450	10.993700
2284.360167	10.680400
2279.742733	10.961700
2266.644433	11.690100
2273.220617	11.259700
2271.640400	11.368700
2281.246067	10.812700
2278.018867	10.936300
2276.997600	10.893200
2279.153850	10.739900
2276.993833	10.796700
2271.971433	11.109900
2274.036483	10.941000
2271.538317	11.085400
2273.769500	10.808300
2269.701150	11.007800
2260.945717	11.437000
2261.833767	11.393200
2272.411917	10.783300
2269.108017	10.969300
2280.823183	10.127100
2271.529383	10.644000
2266.619983	10.898100
2274.995333	10.389000
2271.458717	10.492000
2265.715800	10.755200
2267.617617	10.627300
2271.017183	10.361100
2269.111733	10.462800
2265.065200	10.702100
2263.878200	10.758200
2265.058417	10.612900
2261.087717	10.837600
2261.750350	10.741700
2260.335650	10.821200
2261.964733	10.718700
2264.203850	10.551200
2257.773300	10.808000
2255.410650	10.914200
2258.585467	10.655500
2250.106467	11.148400
2265.580450	10.225400
2267.460167	10.120000
2261.573300	10.250300
2266.053133	9.946800
2257.296317	10.436500
2258.014717	10.377700
2259.234500	10.191200
2255.942683	10.332300
2259.961700	10.048400
2258.387433	10.138200
2254.511700	10.370600
2243.504417	11.019400
2248.952850	10.674800
2252.212633	10.421700
2255.364833	10.198800
2246.135033	10.695600
2245.557117	10.710100
2249.654733	10.452000
2250.639717	10.371700
2249.389233	10.247700
2249.940217	10.196800
2253.532050	9.971000
2249.416583	10.203000
2244.723183	10.355700
2236.954500	10.779500
2238.545283	10.629600
2239.840233	10.530900
2248.319633	10.024800
2238.388267	10.619200
2235.125767	10.722400
2234.953067	10.651900
2234.372200	10.642100
2237.480600	10.406900
2238.430150	10.354700
2239.229817	10.292800
2237.988783	10.291200
2234.606617	10.385500
2231.978083	10.554300
2230.635400	10.650500
2233.002083	10.470600
2229.027267	10.607500
2230.826033	10.494600
2232.346183	10.359300
2227.350950	10.639100
2224.172833	10.827300
2223.280383	10.872300
2233.841883	10.084500
2228.915867	10.345600
2231.365467	10.124200
2226.009533	10.437900
2232.231650	10.060100
2224.446717	10.518700
2219.404183	10.704000
2225.480083	10.307400
2218.542567	10.662100
2220.232733	10.549800
2220.398400	10.536800
2220.078650	10.557500
2207.786900	11.134100
2216.177950	10.599800
2222.410167	10.210300
2223.197617	10.152700
2218.235067	10.387600
2212.977633	10.605000
2218.886300	10.214300
2216.625550	10.305800
2219.067033	10.151100
2213.903250	10.443200
2212.421783	10.530900
2211.106467	10.457500
2204.873000	10.823600
2212.876300	10.332800
2218.589683	9.979500
2216.036850	10.133600
2219.976067	9.881800
2208.163883	10.420800
2206.563600	10.519100
2210.874833	10.247700
2197.820233	11.050200
2199.688817	10.837600
2206.882817	10.385200
2210.086100	10.179500
2206.016783	10.389900
2213.624483	9.922500
2210.652100	10.081700
2202.326083	10.534200
2205.026433	10.237200
2200.221917	10.487500
2197.836467	10.587400
2199.693300	10.483700
2196.909483	10.650300
2192.815533	10.882800
2191.521483	10.812300
2197.647000	10.437200
2188.428333	10.989000
2202.783217	10.114300
2195.939750	10.384100
2192.269417	10.584700
2191.452050	10.581200
2185.612800	10.906700
2197.491183	10.203300
2200.215500	10.040900
2193.693917	10.396300
2193.684767	10.393900
2198.116183	10.114800
2198.849783	10.066500
2197.007750	10.029500
2187.531833	10.460700
2192.053817	10.154200
2198.792700	9.713900
2193.718833	9.996000
2193.519183	9.975000
2191.616817	10.051300
2191.434500	9.939800
2191.857817	9.877300
2183.411633	10.309200
2181.447817	10.421200
2184.121317	10.260700
2194.687033	9.618300
2181.486050	10.251500
2184.158717	10.082500
2189.103033	9.769500
2189.064033	9.776400
2180.180183	10.134300
2179.025250	10.172000
2182.770017	9.900400
2181.177833	9.973200
2182.349983	9.928500
2183.662217	9.853000
2181.043250	9.879200
2183.520117	9.658300
2176.678183	9.975000
2171.840050	10.266800
2174.727783	10.056300
2170.544167	10.338400
2174.176983	10.033200
2171.037250	10.155500
2172.376950	10.048400
2174.301317	9.918100
2174.045083	9.933000
2168.876817	10.239100
2165.879567	10.370800
2172.358600	9.881900
2170.499417	9.984700
2164.181933	10.356600
2171.588217	9.872500
2171.013683	9.795300
2170.281617	9.814600
2164.233717	10.108900
2160.984317	10.294900
2162.376867	10.231600
2167.496650	9.934100
2163.629850	10.109900
2168.336750	9.816200
2171.591967	9.564400
2168.501583	9.724500
2162.559167	10.071700
2168.499717	9.703000
2167.134750	9.602600
2163.658367	9.782500
2166.819800	9.562400
2157.467967	10.088500
2160.889017	9.729700
2161.892783	9.618300
2144.781133	10.572900
2151.872100	10.134800
2147.423033	10.359600
2153.512950	9.997400
2155.446950	9.882200
2152.770900	9.995300
2154.703533	9.860400
2153.158267	9.931600
2148.385067	10.208800
2149.462033	10.128000
2152.343333	9.949800
2151.736117	9.906400
2157.581883	9.501000
2154.448183	9.633600
2148.308350	9.998600
2156.091833	9.375300
2146.043883	9.933900
2139.641533	10.259700
2134.234200	10.586900
2148.428617	9.700300
2152.647267	9.441400
2141.246183	9.907500
2139.716233	9.994500
2148.961300	9.387500
2142.072417	9.776800
2141.778567	9.688600
2145.287117	9.418000
2148.458067	9.209200
2145.020417	9.337300
2139.497617	9.657700
2138.534967	9.730900
2139.944433	9.627300
2138.714300	9.641900
2133.501617	9.916000
2128.879000	10.136300
2131.312683	9.984000
2138.291500	9.563600
2130.838333	9.994200
2128.016083	10.107600
2131.721917	9.855100
2134.394383	9.639300
2134.396433	9.628800
2131.039333	9.810600
2130.885300	9.784400
2126.543550	9.917300
2126.106733	9.904800
2131.326083	9.584400
2133.484467	9.453700
2120.948333	10.097400
2121.021333	10.095600
2123.651383	9.945000
2123.372033	9.943500
2122.826117	9.828100
2124.186033	9.735300
2114.974050	10.256900
2120.491467	9.940000
2119.907650	9.938300
2119.637617	9.961600
2118.435767	10.018900
2116.263383	10.123800
2112.708233	10.310700
2120.146950	9.748700
2108.213233	10.434600
2115.376150	10.012100
2119.502117	9.753700
2120.838100	9.526400
2124.007017	9.295900
2126.678800	9.042500
2114.046267	9.779200
2108.891683	10.089300
2110.243983	9.999000
2107.136633	10.116600
2106.837250	10.097900
2110.335217	9.829900
2113.784350	9.614000
2110.463683	9.793200
2106.656467	10.032700
2111.735467	9.675700
2113.961750	9.497000
2109.540650	9.729500
2115.156100	9.377000
2110.733350	9.630200
2106.135750	9.896600
2105.331283	9.845100
2112.758200	9.287900
2103.690083	9.811200
2106.546600	9.632300
2104.425050	9.678800
2104.974367	9.502900
2094.984167	10.075900
2099.710000	9.736100
2100.682467	9.685300
2092.926583	10.145700
2095.988517	9.934600
2098.487950	9.641900
2085.370583	10.384800
2090.352400	10.068200
2099.450383	9.501300
2103.955700	9.200000
2091.367433	9.938700
2088.177350	10.064900
2095.548950	9.613100
2086.482983	10.116600
2092.196117	9.768100
2098.265300	9.255500
2097.312367	9.276100
2089.502983	9.628800
2085.067783	9.922500
2091.145333	9.548400
2084.706217	9.913300
2091.374650	9.416000
2092.490067	9.251200
2084.378117	9.695200
2083.278650	9.719300
2087.925683	9.431100
2093.391083	9.080700
2090.260633	9.168000
2081.026000	9.599000
2080.048817	9.638500
2079.761117	9.625300
2082.109417	9.468700
2071.238267	10.018900
2072.803733	9.897600
2078.736900	9.468800
2077.563617	9.519400
2074.111533	9.716700
2078.670750	9.448100
2071.658283	9.706800
2074.482450	9.521000
2083.779833	8.907600
2082.290317	8.964100
2072.631117	9.528100
2073.611600	9.483200
2068.555133	9.586800
2062.088567	9.966100
2069.047850	9.551900
2071.579800	9.415100
2063.110817	9.837700
2067.018367	9.535000
2071.486017	9.252100
2072.759250	9.118700
2067.137000	9.447200
2073.084967	9.076600
2070.576083	9.203100
2056.079700	9.940400
2059.587767	9.721000
2055.065733	9.954000
2056.140283	9.900900
2059.914900	9.691700
2051.083917	10.213300
2060.274017	9.529600
2056.601950	9.728900
2065.926883	9.141000
2061.560467	9.413800
2053.399550	9.780200
2052.271217	9.796000
2054.192933	9.614100
2062.916300	9.093800
2060.905333	9.165000
2053.754683	9.551400
2057.438967	9.234400
2053.838183	9.335700
2057.957300	9.075800
2049.646083	9.568500
2057.591650	9.065600
2051.247383	9.402600
2045.601800	9.691700
2041.895633	9.869400
2045.763700	9.616100
2044.958283	9.587700
2044.009867	9.647500
2040.398167	9.866800
2040.905083	9.842400
2041.849567	9.599200
2040.129583	9.698400
2041.865367	9.548800
2038.157333	9.784800
2049.326083	8.991300
2040.514467	9.492400
2034.643083	9.780900
2040.531350	9.417800
2048.561317	8.905000
2046.388150	9.019100
2042.451350	9.185600
2045.597783	8.949600
2044.470700	8.971100
2040.718050	9.147800
2039.958850	9.162800
2036.603733	9.367200
2032.192833	9.588600
2032.895317	9.435400
2030.839650	9.557600
2028.424500	9.696200
2029.114800	9.622400
2034.194850	9.194900
2027.609467	9.576400
2020.456517	9.969700
2023.851450	9.783500
2029.161233	9.454800
2021.855817	9.882100
2031.710050	9.138800
2027.901350	9.359600
2025.873050	9.438500
2027.268367	9.364600
2029.521283	9.110100
2029.854933	9.039300
2027.757700	9.129800
2024.027433	9.335700
2012.609217	10.022200
2024.367550	9.300500
2028.638017	9.044200
2025.937733	9.193200
2028.544850	9.004700
2024.346317	9.165400
2026.647467	9.017800
2018.939117	9.449800
2026.378817	8.945500
2012.919583	9.622500
2018.711183	9.254700
2023.795217	8.938900
2025.535050	8.831600
2018.762783	9.145200
2022.887933	8.871300
2020.637550	8.908100
2020.930800	8.861600
2016.817433	9.051900
2021.309317	8.764000
2010.825483	9.367200
2011.628533	9.299400
2005.501267	9.481900
2008.233650	9.315200
2010.812300	9.135800
2012.482383	9.045300
2016.866200	8.690000
2010.488833	8.981700
2008.751383	9.070200
2002.232933	9.443100
2005.858550	9.223700
1999.059767	9.612700
2002.861083	9.335100
2004.126983	9.126600
2000.245967	9.325900
1998.097733	9.434700
1995.577183	9.586800
1989.344750	9.956600
1995.772283	9.568500
1993.429667	9.688300
1992.211750	9.774800
1996.023217	9.359200
1999.981967	9.106900
1995.825333	9.286800
1991.115000	9.574400
1994.598333	9.335100
2002.510183	8.872800
1994.978300	9.319400
2000.690867	8.945200
2000.104617	8.824600
1994.949617	9.103000
1990.556683	9.335100
1994.022567	9.123400
1993.717117	9.050800
1992.384167	9.046300
1984.844900	9.458300
1990.207700	9.105500
1988.579933	9.191700
1990.036667	9.112000
1986.686200	9.273800
1985.384950	9.223400
1987.312633	9.093000
1986.428317	9.116500
1985.870783	9.118500
1982.747750	9.288800
1988.851650	8.919200
1983.730983	9.153600
1975.379417	9.646000
1979.621083	9.374100
1977.157733	9.508500
1981.652933	9.088200
1973.833267	9.481300
1971.200583	9.579900
1979.944350	9.063500
1977.158100	9.193100
1973.430250	9.397400
1968.306733	9.586800
1973.682900	9.233900
1981.951517	8.733700
1980.233733	8.809200
1978.800483	8.842800
1976.182700	8.857400
1978.561900	8.683100
1964.415917	9.467800
1975.738233	8.746200
1972.076217	8.930800
1971.168817	8.968600
1965.607867	9.307300
1965.975283	9.269700
1958.877267	9.630700
1965.766983	9.201000
1967.883000	9.074900
1962.169967	9.413800
1962.591933	9.261000
1966.605633	8.976000
1969.849883	8.698200
1966.891217	8.856700
1962.117700	9.132800
1962.965450	9.077300
1958.767517	9.194200
1964.149517	8.824900
1965.321633	8.653200
1957.968750	9.135800
1963.038150	8.800100
1957.285333	9.150900
1960.853533	8.895300
1956.950217	9.093100
1962.774200	8.698700
1950.160967	9.367300
1961.560800	8.681000
1957.518267	8.905000
1947.234500	9.477200
1951.059017	9.088600
1954.705400	8.849900
1947.435767	9.280000
1959.341783	8.571900
1951.699883	8.881500
1944.817067	9.258700
1946.944350	9.081800
1945.946250	9.121100
1951.192917	8.796400
1953.201600	8.669900
1944.391867	9.015100
1939.001433	9.324600
1947.474600	8.791400
1940.006217	9.252700
1935.500317	9.386200
1939.830217	9.121600
1941.357883	8.988900
1945.401700	8.736500
1932.802967	9.513400
1933.722833	9.413100
1941.716483	8.866500
1930.547767	9.458800
1930.261283	9.474300
1935.568833	9.121800
1933.543867	9.240700
1937.427433	9.014700
1932.940733	9.264900
1940.319133	8.761800
1934.218233	9.115800
1935.476700	8.885900
1940.933483	8.531100
1941.898900	8.444600
1936.785717	8.724400
1921.697500	9.475700
1930.062267	8.984800
1939.506133	8.370000
1932.839067	8.775400
1934.794217	8.537800
1935.666233	8.409300
1936.422683	8.267700
1922.373233	9.084000
1921.886950	9.104300
1919.924717	9.208000
1920.235067	9.108100
1916.618867	9.230200
1920.791833	8.960400
1915.807817	9.211300
1921.670183	8.851800
1922.674017	8.784700
1926.426150	8.513600
1917.878767	8.884000
1918.961400	8.781200
1920.652700	8.667200
1913.350683	9.122400
1919.841917	8.581000
1913.998817	8.906500
1917.280883	8.684700
1918.874383	8.576700
1919.916500	8.509400
1916.477433	8.683200
1912.908433	8.769900
1909.298850	8.951900
1916.815900	8.485400
1919.878883	8.260500
1908.831617	8.909200
1907.627767	9.000700
1903.387000	9.268700
1909.449750	8.863700
1903.713833	9.030900
1910.549500	8.587700
1913.744833	8.334000
1905.135617	8.808700
1902.078850	8.969600
1906.800550	8.660900
1906.235050	8.679500
1904.643150	8.771000
1906.396567	8.641900
1913.115800	8.088500
1904.799500	8.567600
1908.905050	8.293100
1906.178650	8.465900
1903.507733	8.503500
1903.852033	8.420700
1905.675867	8.279500
1899.386033	8.632800
1901.786217	8.477500
1895.385450	8.874200
1904.483233	8.263200
1898.906633	8.563800
1902.923333	8.250600
1899.216517	8.439700
1893.767083	8.716200
1896.818867	8.526100
1892.316767	8.773900
1900.117550	8.285000
1884.391267	9.015100
1892.755267	8.488000
1895.653100	8.286800
1891.416917	8.530000
1896.955283	8.158500
1887.394367	8.594500
1880.139767	9.007300
1888.622017	8.483800
1895.045467	8.084500
1891.917983	8.126100
1894.414233	7.915200
1891.967033	7.991400
1886.919533	8.270400
1878.766750	8.733200
1888.125800	8.211200
1888.594017	8.124100
1881.667183	8.510700
1874.863533	8.903700
1878.543500	8.671400
1874.975750	8.886800
1883.397367	8.387500
1879.746050	8.477000
1876.430933	8.673600
1874.848567	8.742400
1883.590950	8.198000
1884.540250	8.063900
1884.228417	7.984600
1883.803167	7.951300
1881.977367	7.993600
1879.275700	8.160200
1882.483650	7.967900
1868.669667	8.731900
1868.086417	8.632300
1872.021867	8.372800
1865.947367	8.699200
1870.534067	8.423200
1876.915850	8.029100
1873.479833	8.205900
1871.548683	8.263200
1868.654400	8.417600
1862.307250	8.783300
1865.147850	8.625800
1868.424683	8.295300
1874.505750	7.879400
1863.240850	8.471000
1868.617117	8.149000
1861.686267	8.550400
1863.241667	8.449000
1866.371733	8.097300
1861.531417	8.392600
1869.746883	7.911900
1861.056483	8.434800
1859.006467	8.385700
1856.263417	8.530600
1853.213483	8.705700
1850.080567	8.876200
1862.362067	8.110000
1860.044367	8.188900
1854.107317	8.554300
1859.319433	8.229000
1853.750433	8.529000
1866.591183	7.609500
1854.000967	8.368000
1857.490417	8.136100
1849.835983	8.562000
1847.386417	8.650600
1847.015850	8.652500
1856.262883	8.095800
1855.395100	8.120300
1849.561550	8.450000
1850.176050	8.402900
1846.187667	8.447800
1842.757100	8.593400
1840.066833	8.704800
1853.720233	7.864200
1845.036383	8.332200
1839.600350	8.660600
1832.450450	9.062300
1838.685467	8.702500
1844.024850	8.160200
1841.158367	8.378200
1838.720583	8.482800
1839.693217	8.388400
1835.899517	8.579800
1839.766983	8.325300
1835.644933	8.546100
1839.028317	8.335000
1833.206717	8.633800
1833.001950	8.563400
1837.651483	8.250900
1845.792833	7.717200
1831.957883	8.532600
1831.977700	8.516300
1835.604017	8.305300
1828.826967	8.541700
1832.152383	8.318400
1832.226017	8.296600
1828.525350	8.524700
1820.404617	8.885800
1822.349683	8.748300
1825.800633	8.455200
1829.619750	8.221100
1826.958567	8.357800
1832.272533	8.051400
1829.305417	8.102500
1830.748650	7.982900
1833.151933	7.761600
1826.151200	8.188400
1825.892100	8.185100
1826.012083	8.154300
1822.458033	8.238900
1827.877933	7.877700
1816.886200	8.495900
1823.919883	8.054700
1830.641933	7.581000
1821.079483	8.026500
1818.079367	8.163700
1821.005300	7.947200
1815.151550	8.291000
1817.586950	8.135300
1816.981567	8.132800
1813.000450	8.276600
1818.360083	7.956000
1813.375167	8.273500
1808.881017	8.522500
1813.628417	8.078500
1803.993367	8.631400
1816.953183	7.801800
1808.946167	8.264500
1807.935667	8.325400
1806.871883	8.383500
1801.476150	8.608400
1803.819367	8.413000
1790.605300	9.146300
1807.613583	8.113500
1811.934267	7.840300
1809.885267	7.957000
1811.970383	7.779900
1804.803383	8.175900
1807.522850	7.975400
1802.020717	8.223100
1802.255067	8.193100
1804.840533	8.012100
1800.705083	8.219700
1802.945683	7.911600
1800.916100	8.015300
1813.737900	7.215200
1814.641283	7.130100
1803.685417	7.722100
1801.164367	7.844800
1801.871783	7.728000
1800.525200	7.806800
1798.675283	7.873500
1803.912217	7.554400
1792.639333	8.108700
1799.466283	7.650900
1786.274300	8.432900
1785.138583	8.442300
1792.748767	7.990300
1791.317517	8.061400
1795.109800	7.703900
1794.892200	7.682300
1794.375083	7.698600
1789.804467	7.953700
1791.807683	7.727100
1785.125233	8.046900
1779.912300	8.324600
1781.715083	8.177400
1788.307183	7.754100
1783.755250	8.011700
1781.022200	8.189900
1786.441467	7.734700
1779.266417	8.105500
1775.616517	8.273500
1779.303200	8.071700
1780.312167	8.003500
1776.891450	8.185400
1771.485083	8.370000
1777.481267	8.028400
1776.530333	8.050800
1775.888883	8.095800
1774.213467	8.155000
1773.032433	8.201100
1777.498283	7.905000
1775.128983	8.024400
1777.982600	7.856000
1781.795617	7.614100
1770.946517	8.161000
1774.377350	7.880900
1772.221950	7.988600
1775.472450	7.752800
1772.343483	7.934700
1767.300700	8.214500
1761.367033	8.535900
1766.816733	8.093100
1776.178033	7.521000
1760.912667	8.403700
1759.909283	8.391000
1762.760183	8.141700
1767.107483	7.846200
1763.269683	7.999200
1759.631817	8.199700
1766.830333	7.772700
1765.702967	7.831000
1761.199283	8.046000
1757.503433	8.238000
1756.966167	8.244100
1760.036750	8.082500
1760.290067	7.807000
1753.830733	8.152500
1758.927250	7.803500
1762.335817	7.570900
1761.876950	7.488800
1757.805917	7.746700
1764.807083	7.337100
1756.185500	7.844300
1759.560167	7.452100
1758.205733	7.539900
1760.906250	7.367300
1757.483367	7.538500
1754.146667	7.746700
1764.480067	7.061200
1761.411467	7.213900
1754.759883	7.538700
1749.494083	7.841100
1747.336183	7.942200
1756.212383	7.387200
1752.036200	7.475600
1755.859683	7.191300
1747.160450	7.658000
1752.525283	7.326600
1750.819133	7.411500
1753.502533	7.241700
1750.355000	7.264400
1741.737100	7.749200
1733.496200	8.210600
1736.543700	8.021000
1744.430200	7.429700
1743.721567	7.430800
1740.222950	7.572800
1743.577833	7.359300
1737.795583	7.711200
1733.247917	7.974700
1731.035283	8.065800
1736.731683	7.689600
1740.180683	7.464900
1738.475733	7.572000
1739.764750	7.450100
1731.276683	7.828200
1733.872583	7.636500
1731.259967	7.736200
1731.267150	7.734200
1729.339033	7.842900
1721.796800	8.297300
1730.332367	7.628500
1726.105300	7.873700
1727.217933	7.723800
1727.773433	7.670100
1721.620517	8.043100
1726.694850	7.736000
1719.402417	8.087500
1726.725800	7.570100
1730.908000	7.268600
1720.396400	7.887500
1723.493517	7.701100
1720.252000	7.901900
1720.134167	7.870300
1717.944850	7.913000
1724.619267	7.522300
1728.443783	7.256100
1718.239883	7.880100
1719.814650	7.694300
1724.021133	7.404900
1719.975433	7.576800
1720.779050	7.526000
1719.686183	7.605000
1724.649917	7.289500
1716.470133	7.630500
1709.565000	8.030000
1707.773017	8.052700
1709.336217	7.951900
1714.895517	7.624000
1720.143500	7.304900
1725.415483	6.778500
1716.269583	7.278300
1717.710617	7.189900
1715.792883	7.276800
1715.211650	7.169600
1710.313667	7.397500
1710.160850	7.399700
1710.658117	7.342600
1703.067500	7.786100
1715.627633	7.034100
1709.523867	7.281700
1702.384883	7.641600
1695.815617	8.002900
1700.259800	7.732100
1708.362383	7.239000
1701.324700	7.639400
1708.409400	7.198400
1691.212850	8.038400
1696.391317	7.723600
1702.049983	7.371000
1703.874517	7.249300
1693.217800	7.745300
1691.539233	7.818900
1683.826183	8.249400
1699.761333	7.295100
1699.425283	7.282200
1698.810083	7.314900
1699.958200	7.123400
1691.432583	7.600500
1696.025383	7.284300
1688.469367	7.714900
1702.673400	6.862700
1699.859533	7.011600
1675.470283	8.422500
1683.541667	7.917100
1683.964450	7.887500
1686.807700	7.715000
1685.078617	7.778800
1689.182767	7.417900
1686.918567	7.511200
1687.995167	7.412200
1686.540117	7.474600
1687.355667	7.403800
1682.236783	7.689900
1679.261400	7.712000
1684.251117	7.404100
1690.230233	7.041300
1681.409033	7.549500
1679.423600	7.578800
1681.705417	7.443100
1680.010100	7.506500
1679.628183	7.527600
1676.766167	7.643200
1678.389900	7.491500
1680.077450	7.378400
1687.386217	6.931600
1677.415267	7.373500
1672.179733	7.683600
1682.034800	7.093700
1673.204783	7.620300
1675.578317	7.390900
1669.909633	7.610100
1667.576050	7.718900
1667.574967	7.683700
1669.160867	7.567900
1664.103783	7.862100
1668.126717	7.607500
1668.960850	7.410200
1666.109483	7.560000
1656.911150	8.060000
1664.462783	7.586100
1667.534333	7.402500
1663.550900	7.644200
1667.995767	7.230100
1663.188200	7.496300
1664.650833	7.386900
1659.443933	7.700100
1659.692917	7.574200
1657.018050	7.690400
1655.271333	7.719600
1653.511433	7.815300
1659.444667	7.454500
1648.119800	8.126600
1653.138750	7.760300
1656.735150	7.467200
1654.262433	7.589700
1664.210117	6.962500
1655.852567	7.430800
1656.316633	7.379400
1653.552433	7.459800
1656.150767	7.207000
1654.875717	7.289500
1655.450033	7.223400
1649.485683	7.563900
1652.710550	7.297400
1645.830600	7.685900
1639.991700	8.008100
1645.779750	7.658000
1652.147533	7.263600
1647.385917	7.524400
1645.657583	7.429800
1640.572117	7.707700
1636.648717	7.945900
1640.930450	7.682900
1646.752350	7.214300
1639.073283	7.633200
1637.710567	7.667200
1646.130583	7.153200
1646.229217	7.097200
1644.192350	7.248200
1643.211267	7.208200
1644.730183	7.019700
1642.081250	7.151600
1639.169767	7.281700
1628.988300	7.889600
1634.375917	7.574200
1635.941917	7.453900
1638.283117	7.167400
1643.688417	6.807700
1633.702917	7.310500
1634.025367	7.272100
1633.155183	7.313100
1624.271633	7.826400
1625.323733	7.621500
1624.024633	7.666500
1632.981533	7.082400
1635.416050	6.907100
1639.163367	6.674500
1635.663167	6.869200
1626.772467	7.251100
1626.892883	7.242000
1631.976950	6.945500
1631.169383	6.968700
1631.109350	6.869900
1623.332400	7.239800
1618.418933	7.505100
1615.752233	7.634100
1621.095300	7.288100
1617.474750	7.491500
1612.618067	7.776700
1620.437250	7.283600
1616.237233	7.532100
1621.353967	7.213300
1616.404217	7.484500
1620.626483	7.143300
1620.667533	7.113600
1616.103583	7.355100
1611.004533	7.660200
1617.886617	7.227400
1613.926783	7.447800
1627.761200	6.472400
1621.464400	6.803900
1618.302033	6.877800
1617.208433	6.930300
1609.767083	7.382700
1615.548550	7.018100
1614.528850	6.899300
1604.680883	7.466700
1607.634867	7.312000
1606.494350	7.382600
1608.915800	7.192100
1610.776267	7.058800
1622.278800	6.307700
1612.113467	6.894400
1610.434083	6.969600
1604.540900	7.301300
1595.069800	7.703900
1602.765417	7.239700
1606.423017	6.993400
1609.542167	6.808300
1604.760733	6.989100
1600.833000	7.138100
1590.143133	7.740600
1604.550283	6.841500
1598.036183	7.206300
1599.842867	7.088500
1604.941433	6.765000
1601.297633	6.820800
1596.477583	7.067700
1597.424567	6.927100
1598.097950	6.869900
1589.064583	7.383900
1597.360633	6.887700
1596.504367	6.776800
1593.903400	6.887900
1585.891767	7.364500
1598.186600	6.628700
1596.414117	6.626800
1593.063233	6.747600
1588.971633	6.925200
1582.517133	7.273800
1595.556783	6.483900
1593.842967	6.575500
1595.893500	6.398600
1595.361067	6.398500
1585.791700	6.953000
1580.973450	7.206200
1587.402100	6.789800
1588.268933	6.729000
1581.681717	7.085500
1576.045750	7.297100
1580.272300	7.043900
1577.384133	7.157400
1576.563783	7.206300
1565.901750	7.843400
1577.116433	7.176600
1572.346700	7.412300
1577.846750	7.081400
1573.484233	7.305300
1573.512683	7.303800
1577.602550	7.032800
1581.701883	6.750000
1570.980800	7.207400
1575.848433	6.902100
1578.881917	6.693400
1569.163883	7.246200
1572.180217	6.945100
1566.173717	7.259200
1571.548517	6.915700
1570.278950	6.953900
1575.605600	6.646400
1568.495033	7.024200
1567.548733	7.020300
1571.229033	6.687000
1569.940483	6.728700
1560.019450	7.277600
1563.912000	7.028000
1561.604600	7.173200
1564.522250	6.968900
1562.197033	6.968100
1559.609033	7.137000
1558.094050	7.178600
1558.190033	7.178100
1559.846717	7.058800
1561.760867	6.941800
1568.555717	6.414700
1554.940900	7.182200
1560.625983	6.828000
1559.733883	6.889200
1556.280017	7.012600
1557.062250	6.870500
1556.286817	6.853300
1555.779083	6.858300
1557.123750	6.770600
1558.751233	6.653700
1553.614350	6.875900
1542.317383	7.450800
1555.015617	6.676600
1556.870167	6.548500
1552.450017	6.750100
1557.921017	6.360100
1546.083167	7.037800
1548.086683	6.786900
1552.010583	6.548700
1552.575750	6.500900
1548.866317	6.713500
1550.040883	6.557100
1550.884700	6.489500
1551.050083	6.435900
1541.527417	6.995200
1546.202117	6.702100
1541.125200	7.002800
1543.206217	6.765700
1536.970100	7.086500
1540.078650	6.880400
1542.380133	6.726900
1537.581400	6.983600
1535.549217	7.058800
1532.895467	7.016800
1539.801533	6.653400
1537.327533	6.793500
1536.435700	6.819500
1538.680983	6.651000
1538.471317	6.605200
1543.436717	6.264100
1542.520300	6.241400
1542.476717	6.232000
1539.874500	6.373400
1538.767417	6.403600
1535.025383	6.563100
1537.192617	6.414700
1526.764300	7.018100
1529.405717	6.861100
1531.854700	6.552800
1538.907650	6.100100
1523.766967	6.914500
1530.933550	6.485600
1534.538050	6.254000
1531.134767	6.435700
1528.595883	6.467100
1529.243967	6.366400
1520.391667	6.864700
1526.048333	6.492300
1516.258367	7.006300
1522.857783	6.662100
1524.595333	6.481800
1514.936283	6.939000
1514.558333	6.960000
1520.120100	6.593300
1525.522733	6.252300
1519.786933	6.570300
1516.863267	6.731500
1514.570333	6.747600
1514.523850	6.735800
1514.058100	6.770600
1517.458633	6.540300
1523.864533	6.042900
1514.092217	6.589900
1512.681283	6.643800
1511.175800	6.761300
1506.180950	6.960200
1512.897800	6.543500
1507.875950	6.781700
1507.632400	6.770600
1519.503767	5.981800
1509.568633	6.571200
1514.269450	6.275000
1510.968967	6.484300
1505.528350	6.639200
1510.234033	6.350100
1501.098500	6.911900
1502.834633	6.764400
1503.772733	6.666300
1496.921317	6.946900
1495.654700	7.023800
1500.153450	6.728300
1501.513750	6.634700
1501.597167	6.619600
1495.851233	6.947700
1499.914233	6.623700
1501.590650	6.490700
1493.059083	6.925500
1497.174367	6.678100
1499.480733	6.531300
1495.985983	6.714300
1500.670417	6.418900
1497.941750	6.572300
1504.308667	6.030700
1500.707100	6.222800
1501.705100	6.066800
1497.108300	6.307700
1480.871117	7.221400
1491.084350	6.605900
1494.586517	6.408400
1493.208433	6.456900
1486.482500	6.757400
1497.907850	6.011900
1484.884967	6.702100
1487.824517	6.527500
1488.375883	6.478800
1492.013133	6.262800
1487.141617	6.528400
1483.014867	6.651100
1487.780233	6.351000
1478.922783	6.872400
1480.431600	6.765800
1479.526517	6.681700
1485.352400	6.324500
1478.566633	6.675900
1476.089583	6.831900
1484.111750	6.324500
1481.516150	6.469700
1476.317483	6.750600
1477.094717	6.684400
1479.100983	6.498600
1484.276900	6.186800
1481.488650	6.324500
1474.865567	6.706000
1463.528867	7.230100
1467.266200	6.992300
1474.535400	6.565700
1473.515200	6.629300
1474.472567	6.429400
1474.672150	6.392300
1472.955383	6.461700
1477.413083	6.156000
1465.896183	6.838500
1469.565183	6.622800
1469.588850	6.567500
1465.027800	6.738200
1473.748750	6.173900
1470.991650	6.254000
1467.870783	6.439800
1466.632500	6.494300
1459.594867	6.876400
1463.735800	6.495200
1469.457467	6.132100
1465.100783	6.373800
1459.849383	6.660900
1464.876300	6.208100
1465.917450	6.134900
1459.069317	6.522700
1463.456517	6.233500
1457.271450	6.516800
1458.818733	6.415800
1459.845317	6.295000
1461.226567	6.175000
1454.397567	6.509800
1448.516283	6.873900
1454.768917	6.506800
1454.098850	6.525500
1461.874117	5.987500
1450.432817	6.587800
1448.564583	6.694500
1451.235417	6.526600
1455.327100	6.248600
1445.371000	6.717500
1450.185250	6.404300
1452.345650	6.204200
1456.169583	5.970600
1456.612267	5.933500
1447.260333	6.483300
1450.840950	6.175700
1454.104483	5.958900
1451.665883	6.099600
1443.656117	6.557500
1452.227333	6.016800
1452.880750	5.954900
1448.393383	6.186600
1452.409600	5.946800
1443.749333	6.237000
1450.046600	5.858600
1440.820900	6.342800
1444.227750	6.116900
1438.596267	6.381100
1440.631283	6.219000
1446.471583	5.841900
1432.590467	6.682900
1435.659000	6.417500
1438.586933	6.156000
1431.233617	6.587500
1432.469200	6.477200
1435.387817	6.312700
1437.951183	6.152400
1438.021100	6.111800
1433.229017	6.252400
1434.694333	6.120300
1435.169617	6.020200
1435.143267	6.022000
1433.257100	6.129500
1426.970300	6.482600
1419.783150	6.761900
1419.746183	6.778200
1425.290400	6.457700
1429.853800	6.172400
1427.442800	6.169700
1423.798767	6.358900
1430.971383	5.945100
1426.827033	6.166500
1420.841500	6.324500
1422.983267	6.232300
1419.498567	6.388900
1417.746883	6.465000
1420.091967	6.298600
1425.170367	5.989900
1416.893533	6.464100
1421.347050	6.190700
1423.237750	6.015800
1422.144933	5.958600
1412.503533	6.502800
1413.747433	6.418200
1412.989300	6.412700
1415.611483	6.153300
1410.107133	6.442500
1412.710333	6.228900
1419.061850	5.826200
1423.382167	5.576200
1415.981967	6.000100
1417.865917	5.729800
1406.337400	6.386600
1415.415617	5.800000
1417.653967	5.639500
1403.809300	6.455600
1413.329250	5.891900
1412.494200	5.832800
1405.546533	6.180900
1404.095450	6.261500
1414.051083	5.640000
1414.262517	5.620900
1407.508900	6.014300
1406.243667	6.067000
1409.967167	5.752300
1405.459650	6.009800
1402.101567	6.206800
1408.081233	5.824800
1406.454517	5.779600
1410.475183	5.506200
1401.152517	5.962600
1394.600583	6.318900
1393.138267	6.416200
1397.775183	6.131100
1399.013317	5.942500
1397.488533	5.977500
1401.987950	5.621600
1400.000117	5.748400
1397.679900	5.867000
1393.012117	6.108100
1402.954617	5.432800
1398.380750	5.695100
1392.817350	5.988800
1393.204683	5.958600
1396.908733	5.691900
1391.197983	6.003300
1390.078667	6.051700
1396.548600	5.642600
1391.111433	5.954700
1396.114283	5.653800
1390.137367	5.941900
1388.535683	5.896200
1382.627633	6.221100
1388.682367	5.807200
1385.543567	5.950000
1387.081983	5.864100
1385.008683	5.959200
1386.333567	5.741800
1384.359950	5.820200
1377.817950	6.197300
1378.617333	6.138600
1377.526067	6.118600
1380.306383	5.913900
1374.478283	6.237900
1377.738733	6.016800
1376.940067	6.074200
1386.550950	5.483900
1377.609750	5.961500
1380.464717	5.738200
1370.883917	6.334900
1377.256417	5.899600
1385.878683	5.340300
1371.753733	6.044700
1370.935883	6.084600
1372.755550	5.952800
1372.431517	5.958100
1375.076567	5.779000
1367.973083	6.177600
1367.466350	6.065900
1370.591217	5.848000
1366.181867	6.060100
1363.692583	6.219600
1357.846433	6.575100
1371.110067	5.762200
1366.181167	5.984800
1361.808950	6.240500
1362.665183	6.159600
1361.794767	6.205600
1365.729267	5.949400
1359.254983	6.343800
1361.646067	6.104200
1362.223067	6.055600
1362.724950	6.011000
1367.491933	5.703600
1363.881583	5.809500
1364.705100	5.659700
1368.040017	5.443300
1362.181800	5.766500
1356.107167	6.056500
1348.908367	6.347500
1354.098383	6.006300
1357.865850	5.728100
1355.895717	5.842900
1350.823700	6.079400
1350.697000	6.073400
1346.408183	6.317100
1352.533367	5.938600
1347.565133	6.090900
1358.207433	5.407200
1353.875350	5.600600
1346.171217	6.041200
1347.633267	5.908600
1344.719317	6.087400
1349.483183	5.664900
1337.963267	6.321700
1345.451683	5.841900
1336.653583	6.380400
1342.900583	6.001500
1347.754217	5.695600
1337.777083	6.086700
1338.508483	6.018300
1340.216483	5.903400
1337.602017	6.051100
1339.428167	5.836300
1336.681117	5.919700
1342.900233	5.549100
1336.905633	5.873400
1328.832117	6.309100
1325.750933	6.382500
1336.213850	5.748800
1324.498983	6.447300
1334.667600	5.830700
1336.761733	5.559300
1332.194283	5.805900
1328.722467	5.992600
1338.372017	5.411800
1337.088100	5.463200
1334.356667	5.625100
1325.786383	5.910900
1332.733500	5.435600
1326.941233	5.759400
1324.871867	5.903500
1332.084383	5.356800
1329.309650	5.471300
1329.983300	5.427200
1328.353017	5.515000
1325.620867	5.676700
1324.940117	5.713600
1304.196267	6.964300
1320.867450	5.964500
1319.187100	6.094400
1327.653433	5.586900
1323.366817	5.742700
1320.131683	5.676000
1319.891483	5.661000
1322.000583	5.506200
1318.848400	5.668400
1318.490933	5.691600
1322.595967	5.399800
1312.267033	5.848200
1308.713117	6.030700
1304.524033	6.289800
1314.587350	5.684600
1316.495283	5.537700
1312.912900	5.765600
1306.107700	5.957300
1309.253400	5.778200
1310.117833	5.694000
1304.207783	6.048000
1314.642950	5.313500
1315.521383	5.196000
1322.117750	4.789400
1308.363850	5.575100
1300.841800	6.018200
1302.715117	5.906200
1300.899567	5.828800
1311.972950	5.156600
1309.026067	5.298700
1301.625517	5.739100
1308.111333	5.264100
1310.780317	4.996300
1302.461550	5.490500
1307.823250	5.157800
1308.582783	5.100600
1304.091483	5.386500
1303.421583	5.387400
1299.498883	5.463300
1301.290200	5.324900
1305.661067	5.028400
1291.770350	5.837900
1301.739717	5.131900
1294.587183	5.524200
1294.382583	5.516700
1293.535817	5.563600
1292.856333	5.603100
1298.430017	5.235700
1283.887983	5.971500
1290.506267	5.526700
1284.996183	5.858700
1287.881683	5.661600
1290.573067	5.503000
1282.206917	5.999800
1288.649433	5.462400
1279.064417	5.954500
1284.663667	5.628400
1294.001417	5.072200
1292.461883	5.088900
1292.703783	4.972500
1277.909817	5.833000
1288.341000	5.211800
1283.957150	5.459900
1278.544017	5.779000
1281.398117	5.570800
1280.185150	5.479100
1283.591117	5.269300
1276.050667	5.727100
1279.491317	5.522800
1277.709350	5.500100
1280.619000	5.300900
1271.539033	5.811600
1281.501867	5.223700
1280.634200	5.247500
1275.822850	5.534000
1275.453917	5.458000
1275.166333	5.473500
1278.549333	5.263200
1274.881967	5.456800
1272.243467	5.576200
1272.474167	5.570200
1279.517350	5.002700
1270.537383	5.537100
1265.613733	5.814900
1268.862433	5.612400
1267.832517	5.626300
1268.296367	5.539900
1268.711717	5.470600
1264.657583	5.698800
1267.992767	5.493100
1270.217800	5.340500
1265.285167	5.528800
1260.113000	5.681300
1267.837283	5.203500
1258.063133	5.754900
1257.143783	5.800800
1261.832917	5.515000
1257.551300	5.781200
1261.456717	5.521300
1259.035017	5.641900
1264.542000	5.000300
1264.051117	4.987600
1257.367100	5.369900
1253.164983	5.583900
1257.635367	5.322700
1255.975917	5.428300
1250.548317	5.761300
1250.847683	5.742900
1248.059167	5.662900
1245.996133	5.723400
1241.868683	5.961300
1249.564867	5.485300
1252.905050	5.288000
1248.535583	5.544900
1242.725000	5.857700
1245.719600	5.683400
1246.203600	5.436800
1245.294167	5.388700
1252.752250	4.897100
1247.069983	5.190900
1246.701633	5.211000
1243.688567	5.376700
1250.130417	4.962700
1246.976083	5.138400
1239.744717	5.573500
1239.862900	5.556500
1231.384483	5.953800
1237.728600	5.388200
1243.549600	5.002100
1233.013517	5.627800
1237.505350	5.346500
1236.873467	5.357500
1240.270050	5.139800
1238.369867	5.251300
1241.448583	5.060100
1237.012250	5.208200
1239.049583	5.068500
1239.285300	5.043200
1241.537083	4.908300
1232.284367	5.451700
1229.175283	5.636400
1224.092800	5.938400
1225.702817	5.846500
1229.426167	5.322700
1225.588133	5.399400
1227.946067	5.209300
1222.668467	5.498200
1228.012400	5.183300
1220.187950	5.645900
1219.772083	5.688900
1218.866783	5.732400
1221.422033	5.579700
1217.786150	5.794700
1221.535067	5.456800
1224.029700	5.108300
1223.277050	5.126300
1219.522067	5.366800
1217.073783	5.501400
1217.422217	5.453800
1218.546400	5.377400
1223.110867	5.095900
1220.424867	5.256100
1213.099833	5.590200
1214.191567	5.488300
1222.854050	4.946300
1211.986283	5.582100
1217.044033	5.265000
1225.504417	4.736500
1220.475933	4.995900
1207.622983	5.755800
1207.362700	5.489000
1206.313383	5.474100
1218.996900	4.688000
1207.403600	5.381000
1206.780300	5.399600
1210.827200	5.159000
1220.128800	4.415300
1207.147617	5.173000
1208.868950	5.042600
1207.737883	5.094000
1209.575183	4.944600
1206.920483	5.038500
1201.182200	5.356400
1209.308983	4.865700
1214.359233	4.539300
1200.170317	5.341900
1202.976683	5.172000
1205.123967	5.022100
1205.129467	5.001700
1200.170167	5.008900
1205.328283	4.620600
1202.406117	4.765600
1204.951883	4.578600
1197.129750	5.038400
1192.934433	5.255100
1185.809283	5.678400
1185.473833	5.724900
1188.016150	5.295800
1187.057783	5.319300
1181.970433	5.579700
1188.158500	5.210600
1193.606167	4.881700
1197.592167	4.636600
1197.228350	4.507100
1181.273967	5.379700
1188.350867	4.955500
1181.165133	5.364600
1177.249300	5.532500
1183.807067	5.071600
1178.090833	5.406600
1184.869300	4.973300
1183.555717	5.067400
1176.988517	5.443300
1179.142867	5.290000
1180.333750	5.033600
1180.812033	4.978500
1183.039117	4.834300
1180.555800	4.985000
1181.358833	4.928100
1177.279267	5.162200
1179.728350	4.988000
1182.710950	4.807400
1170.271483	5.507400
1177.692733	5.060100
1177.035733	4.812600
1176.454067	4.777600
1175.379100	4.825700
1167.933200	5.239100
1181.959900	4.417400
1181.521367	4.438600
1161.495333	5.525100
1175.524700	4.667000
1169.251350	5.004800
1173.081367	4.767700
1169.140683	4.915800
1164.381017	5.132800
1164.169117	5.110900
1166.597067	4.916800
1170.366000	4.679000
1164.605233	5.016900
1169.366350	4.680500
1167.894300	4.646900
1171.070683	4.438500
1161.322633	4.993200
1171.615433	4.348800
1162.060150	4.788500
1163.815783	4.663200
1161.266050	4.769600
1159.338550	4.862600
1168.489100	4.309100
1162.804483	4.627200
1151.914467	5.148100
1151.817933	5.101800
1166.903817	4.163500
1154.826583	4.860600
1152.987733	4.952700
1150.316150	5.104100
1152.088750	4.872800
1156.080767	4.585600
1153.493250	4.721000
1149.745200	4.937900
1145.423467	5.124100
1149.718600	4.801100
1149.803017	4.772800
1151.624800	4.578800
1155.974600	4.316900
1152.930850	4.483100
1150.239283	4.598400
1146.985850	4.698500
1148.542283	4.589400
1147.219267	4.647100
1151.489500	4.392500
1143.711033	4.766100
1154.137650	4.126400
1157.156350	3.881600
1151.298233	4.194300
1141.311800	4.733900
1135.761033	5.068500
1142.074483	4.670100
1143.835817	4.541200
1138.686000	4.709000
1139.040483	4.661400
1140.117767	4.571800
1144.327117	4.313500
1145.324483	4.176600
1131.376017	4.905400
1132.691767	4.845400
1126.996417	5.181700
1134.134167	4.729000
1128.028100	4.973300
1131.699983	4.721100
1134.743817	4.495900
1128.392717	4.860700
1132.624800	4.576700
1131.231850	4.661000
1128.376383	4.811400
1122.869867	5.133400
1130.729283	4.604100
1123.898200	4.992200
1132.233883	4.461900
1123.499433	4.962300
1121.370350	4.937300
1125.037483	4.700100
1129.909600	4.352300
1124.249250	4.680800
1118.390200	5.013200
1119.201783	4.939800
1134.401450	3.904100
1122.503450	4.545200
1114.669033	4.950300
1117.163350	4.763900
1112.399317	5.043400
1112.061700	5.057300
1113.980817	4.834900
1114.696500	4.754000
1110.405750	4.971200
1112.554967	4.867000
1111.774450	4.872500
1113.504683	4.670100
1108.986017	4.924900
1109.653700	4.829600
1112.659333	4.642800
1109.250767	4.846000
1106.603683	4.989000
1113.025917	4.457200
1110.911583	4.553700
1100.411967	5.152600
1110.742983	4.543800
1103.725767	4.836400
1105.444000	4.688000
1101.888767	4.824400
1103.471950	4.715600
1097.285817	5.116000
1099.987800	4.938500
1097.295000	4.992200
1102.712417	4.626400
1095.596867	5.015800
1100.168383	4.728600
1097.187683	4.876800
1092.057333	5.181000
1101.103083	4.644600
1103.166500	4.491800
1100.277867	4.634800
1102.336633	4.492200
1105.304400	4.309400
1102.041650	4.469600
1100.653483	4.525800
1095.918717	4.742200
1095.711883	4.749600
1097.911883	4.607400
1089.658917	5.089900
1089.463867	4.945600
1089.171083	4.936500
1094.240283	4.625100
1097.304867	4.424800
1084.036900	5.055200
1093.461267	4.484500
1087.677367	4.771900
1090.903583	4.554900
1093.800183	4.299900
1091.133583	4.452000
1083.960800	4.872200
1084.439367	4.826500
1078.843550	5.013200
1081.832800	4.829600
1091.726250	4.213700
1088.815000	4.339400
1077.039117	4.974100
1078.465583	4.780200
1078.668850	4.751000
1087.770717	4.155400
1079.822500	4.617200
1089.109100	4.061600
1087.771383	4.126200
1080.019167	4.438900
1082.790117	4.252300
1077.519567	4.480300
1082.823967	4.154800
1075.704733	4.562100
1077.550450	4.422500
1071.169350	4.656500
1074.753283	4.421700
1078.455917	4.163500
1066.368933	4.888800
1061.374717	5.056300
1067.824517	4.648000
1064.082767	4.813900
1062.474250	4.936700
1057.187483	5.269200
1059.373383	5.131200
1071.813517	4.332700
1076.509350	4.023200
1061.989867	4.813900
1069.501167	4.357900
1068.424117	4.393600
1063.568017	4.661800
1064.586217	4.561300
1063.784967	4.509700
1065.653850	4.394300
1069.482617	4.130500
1060.727867	4.604800
1062.444633	4.381500
1060.785267	4.460500
1054.069433	4.827600
1057.799717	4.563100
1055.252600	4.710200
1063.153850	4.231700
1058.025900	4.395800
1059.036183	4.310400
1062.231083	4.107600
1057.215250	4.391300
1058.378133	4.233900
1052.658117	4.567000
1059.152767	4.163500
1051.789200	4.590800
1053.179933	4.473000
1056.250500	4.273400
1048.042117	4.673500
1047.524900	4.634300
1046.308500	4.658000
1047.539300	4.556000
1044.936750	4.730000
1050.741500	4.345100
1051.592750	4.228700
1049.098733	4.293600
1052.763733	4.008600
1046.951517	4.309600
1042.289017	4.559500
1048.999517	4.168300
1049.946417	4.069900
1042.852700	4.353500
1035.382450	4.776800
1043.610983	4.259100
1034.704300	4.791500
1038.268067	4.577200
1043.608050	4.263200
1035.593100	4.677500
1039.639283	4.405500
1032.202750	4.794200
1037.474683	4.502700
1047.133250	3.769400
1034.908100	4.460900
1047.002350	3.674000
1039.474617	4.133200
1029.219950	4.727900
1033.255567	4.478200
1030.447300	4.554500
1028.278700	4.601900
1014.649317	5.411800
1024.398550	4.786700
1029.991233	4.440000
1026.443617	4.640200
1023.170183	4.770900
1029.077467	4.283800
1025.704483	4.452600
1027.964783	4.310400
1021.337983	4.687200
1021.026917	4.663300
1020.681417	4.681600
1026.327817	4.334200
1023.357000	4.490300
1027.926783	4.203000
1026.743483	4.248300
1026.888500	4.050500
1029.611600	3.871400
1030.094717	3.830500
1026.032017	4.023100
1015.764383	4.496100
1019.240367	4.269100
1015.355700	4.413200
1010.947683	4.663500
1011.522133	4.589400
1012.993650	4.514000
1018.854800	4.062800
1011.379333	4.440600
1023.653883	3.618000
1008.506300	4.535300
1016.890500	4.014800
1018.725200	3.884900
1009.625567	4.379800
1008.724533	4.312800
1012.080983	4.091400
1012.265667	4.023400
1007.768933	4.262400
1006.749683	4.328700
1011.556100	4.033100
989.246083	5.180100
998.558467	4.605400
1002.336867	4.386700
999.869133	4.539300
1004.675133	4.208100
1003.077417	4.281700
995.428483	4.737000
999.828000	4.473800
990.638067	4.886200
996.503450	4.508900
998.598467	4.332700
991.743083	4.726800
992.632233	4.595700
994.841183	4.469100
990.992200	4.698500
986.868117	4.937200
1004.823933	3.730800
997.800800	4.126100
996.820567	4.153000
991.482867	4.469500
993.827733	4.269900
987.284817	4.630900
989.321833	4.505700
993.658883	4.232100
991.263867	4.347100
991.410483	4.301400
987.241883	4.534500
992.131733	4.164900
989.311817	4.317100
990.400733	4.176300
988.366417	4.240900
986.917467	4.305700
996.206617	3.760900
983.791100	4.416800
991.653083	3.917700
986.449817	4.207600
986.847400	4.164800
989.899483	3.922200
991.733783	3.777900
980.445217	4.368100
971.537950	4.872200
975.926400	4.606100
978.464267	4.446100
988.734150	3.754400
984.222367	3.944500
977.828417	4.297600
988.015150	3.677000
980.181733	4.067400
966.156683	4.756200
980.000200	3.890000
972.303617	4.305400
963.177133	4.842600
967.131150	4.576700
968.136150	4.516700
975.195917	3.990400
978.246017	3.759700
970.597483	4.085400
970.797417	4.065100
968.005000	4.238000
963.944333	4.441500
982.747267	3.206500
970.373833	3.897600
970.128317	3.834100
964.954200	4.170500
957.687433	4.583100
963.698033	4.215300
962.304283	4.247400
967.522633	3.907800
958.526650	4.394300
955.235467	4.594300
966.426650	3.863300
957.823017	4.297900
960.131550	4.100600
961.963467	3.976000
952.823517	4.515700
961.875100	3.959600
954.263017	4.357600
961.275117	3.810100
963.525233	3.660900
957.249217	3.955300
952.006950	4.242200
951.575217	4.260100
954.006667	4.122400
955.377917	3.889000
954.297400	3.891500
951.021350	4.058600
948.958617	4.205500
953.918000	3.788300
951.030083	3.907800
946.123100	4.117400
938.592667	4.585600
932.734650	4.932800
937.824850	4.612100
935.653333	4.646100
951.313650	3.688700
949.928250	3.712400
946.703267	3.869800
939.055733	4.320900
938.410117	4.347100
936.095150	4.352300
935.347450	4.360400
938.454917	4.153000
938.727100	4.150400
943.475867	3.784300
937.286800	4.058000
941.646767	3.778600
935.779033	4.082400
938.920983	3.906900
926.503283	4.638000
923.993083	4.778400
930.143350	4.288700
933.623417	4.053400
940.983967	3.540700
937.011733	3.765600
941.056517	3.517300
934.507467	3.893200
934.590200	3.852800
928.500717	4.199200
927.265383	4.167000
928.671317	4.077100
926.374450	4.160000
931.062367	3.842200
930.778550	3.785900
926.585117	4.001200
924.852467	4.082200
922.917800	4.211600
929.585417	3.688000
926.343717	3.856000
926.397283	3.813900
923.063533	3.995700
920.257650	4.116800
919.178217	4.076500
915.560900	4.258700
910.044783	4.560600
919.963017	3.993700
914.531117	4.306300
920.435550	3.918500
920.089600	3.874700
925.636850	3.531500
917.252800	3.978500
918.601483	3.868200
920.662933	3.724800
927.262900	3.339200
915.841300	3.863600
916.292650	3.796400
920.844767	3.424000
915.544933	3.729900
900.508450	4.620200
908.629017	4.145200
908.375017	3.982600
912.541167	3.748000
905.318100	4.171400
909.929650	3.884000
911.382483	3.696000
908.439650	3.818000
898.614367	4.336600
899.252967	4.260400
907.470533	3.770100
903.075650	4.040300
901.405733	4.067400
905.817883	3.693300
897.257550	4.197800
903.551717	3.802000
898.473000	4.079600
893.507300	4.293500
906.490983	3.510900
910.930733	3.162600
909.546400	3.224000
906.094083	3.389700
908.730417	3.215200
902.147133	3.463800
900.924783	3.478200
888.672767	4.184500
893.969117	3.855400
900.017267	3.484300
896.009150	3.712400
899.482033	3.362100
895.817317	3.534100
898.121183	3.313800
893.464800	3.562400
893.467050	3.539000
890.419050	3.722900
893.164200	3.408200
892.874267	3.419800
892.150233	3.410100
889.718267	3.547900
889.088667	3.563800
887.887250	3.590300
886.277000	3.647300
880.271150	3.983900
880.042100	4.005500
886.925450	3.584600
885.254917	3.634600
875.608617	4.094200
874.882950	4.125500
880.622533	3.707700
885.460750	3.390800
869.057550	4.364600
877.216033	3.892500
881.286700	3.496100
873.009150	3.966800
869.347183	4.167000
865.006650	4.425200
872.203383	3.897600
872.815517	3.802000
873.547433	3.660000
872.483817	3.753400
881.651883	3.182700
874.112450	3.616100
879.095450	3.245600
880.446300	3.060800
874.989467	3.371500
874.010100	3.376100
867.536150	3.755900
867.577850	3.747800
862.174717	3.961600
864.347100	3.755600
867.075917	3.573100
871.314217	3.289600
863.480467	3.714100
864.991267	3.535300
869.438417	3.235600
868.166767	3.269200
868.107467	3.245200
866.761517	3.323200
866.752900	3.317300
859.820483	3.593400
860.218667	3.549100
853.999233	3.841800
856.805400	3.662600
864.593017	3.184000
859.015983	3.525000
863.213900	3.141200
857.344633	3.442500
864.512583	3.005400
864.062150	3.018800
853.278800	3.588800
853.673083	3.561000
857.859217	3.187900
864.120000	2.824100
854.163350	3.380000
858.249933	3.101100
846.357433	3.729600
843.716500	3.815000
843.628833	3.792600
847.658500	3.513800
849.702267	3.417100
842.410167	3.848800
850.087683	3.343500
846.053667	3.447700
845.115833	3.497400
848.640700	3.289700
839.654367	3.795100
844.664650	3.485300
840.769533	3.711600
845.745750	3.256100
845.560867	3.264700
840.160817	3.574600
840.866200	3.535700
842.646317	3.371500
844.676967	3.204700
839.649817	3.431800
840.880067	3.360700
850.109250	2.786300
838.924800	3.405800
843.408450	2.974700
829.288550	3.797000
850.756367	2.541100
839.531017	3.159100
833.328217	3.442000
827.385317	3.742000
836.353183	3.157200
830.840000	3.440900
825.243850	3.767000
830.309850	3.480200
831.872433	3.327300
827.805667	3.462700
823.124017	3.718600
826.830100	3.472100
832.627817	3.111700
819.045867	3.898600
827.138500	3.419600
829.716983	3.138300
830.103167	3.065200
828.698900	3.114500
823.923283	3.393600
812.385483	4.004700
828.579150	3.015200
824.284967	3.250900
819.284217	3.514300
809.449817	4.076800
818.462000	3.557900
814.345867	3.656500
814.983567	3.594400
804.457017	4.205500
808.301500	3.961700
815.839300	3.422000
808.767683	3.791400
811.786350	3.572000
809.754017	3.675700
806.591617	3.830800
808.377283	3.670500
809.417750	3.599000
812.054417	3.431200
817.177267	3.101800
813.316217	3.267100
821.314417	2.782300
814.662183	3.153000
811.508017	3.306100
810.668750	3.223700
812.330150	3.116900
805.539933	3.446700
813.180167	2.962000
807.224350	3.311900
806.144767	3.343300
804.396167	3.321700
805.800617	3.196600
799.770733	3.539700
807.192617	3.079300
800.707983	3.334800
799.000400	3.418700
796.139200	3.588200
804.168450	3.125600
804.084467	3.038200
794.079783	3.458700
796.147050	3.355100
795.387567	3.415000
792.789883	3.551100
799.953767	3.041800
797.471833	3.181500
799.099700	3.081800
797.402867	3.170500
794.542583	3.172200
794.438317	3.164200
791.490117	3.331000
793.228650	3.246500
793.916133	3.100500
787.233300	3.463700
793.574633	2.988600
788.105750	3.293600
793.385683	2.970300
779.836833	3.742500
793.548217	2.811100
792.328333	2.817900
789.835000	2.902100
784.122083	3.235500
776.654433	3.636900
779.143767	3.500800
783.709733	3.212700
782.130017	3.307000
775.299767	3.502600
765.981917	4.066300
778.305400	3.325100
775.274467	3.523000
775.549000	3.448100
768.044100	3.796400
773.031483	3.472800
774.535150	3.386600
769.390417	3.664000
764.419517	3.925000
769.626483	3.610200
768.974350	3.581300
775.634367	3.198400
770.875617	3.473800
770.752517	3.453700
767.814067	3.495700
767.493800	3.507500
771.495517	3.225700
769.522483	3.323400
765.710250	3.418700
760.850433	3.691500
772.052450	2.951900
766.232817	3.285400
758.010250	3.769400
768.878500	3.103400
769.457550	2.964500
765.351233	3.130800
759.604083	3.447600
761.516917	3.300700
757.675650	3.509900
772.052217	2.590000
760.616333	3.218700
758.965867	3.230500
762.611800	2.969300
756.417450	3.321200
752.724633	3.477600
752.048317	3.494800
755.362333	3.283200
751.026667	3.426400
754.148667	3.240400
758.565933	2.979600
754.133883	3.243900
755.821167	3.002800
749.125383	3.369600
755.039783	2.955300
750.079550	3.244400
749.514867	3.261400
748.965633	3.279900
741.920917	3.576100
753.713350	2.835800
744.487333	3.337800
747.703500	3.142100
742.515583	3.382500
743.635817	3.277600
756.402417	2.416900
751.134633	2.695500
741.856317	3.232000
740.379733	3.297000
730.284533	3.847800
736.932217	3.424000
736.240733	3.466800
732.890083	3.627300
742.447150	3.047000
746.816550	2.765900
747.160583	2.669100
746.237000	2.626100
745.395467	2.639800
749.687000	2.352200
743.571350	2.693900
738.835800	2.880200
739.453817	2.803300
737.354150	2.809400
727.482183	3.385500
728.724400	3.288200
732.729217	3.049000
728.505333	3.246000
729.862600	3.149000
727.123117	3.253000
735.225983	2.748000
729.940067	3.045100
734.210100	2.786900
724.964167	3.180100
719.740867	3.469900
719.504317	3.495700
722.293883	3.301200
727.016217	2.956300
725.253850	2.951900
718.034767	3.369100
716.920967	3.407500
718.548017	3.300100
726.604767	2.790100
724.961083	2.867100
719.396583	3.062700
723.670667	2.805100
719.579650	2.968700
723.473650	2.706800
719.366500	2.941400
709.527433	3.497400
707.365600	3.536300
702.414900	3.790100
703.339050	3.735500
704.738600	3.687800
710.102717	3.330400
715.915283	2.979900
712.737350	3.055400
712.628833	3.039300
714.911417	2.887900
711.927917	3.067000
705.568717	3.372400
711.807733	2.934000
706.910017	3.208000
708.680667	3.052300
699.191500	3.629900
704.766250	3.278900
699.684483	3.506700
698.804383	3.469800
700.633400	3.328400
708.895333	2.805900
705.033233	2.996700
709.395683	2.715900
703.153100	3.057200
705.033833	2.886900
704.685417	2.895700
702.432967	3.008500
699.899700	3.143000
704.346917	2.761600
696.585417	3.190600
702.050483	2.826000
691.507350	3.425900
694.213367	3.229900
698.515683	2.985600
685.926067	3.582400
693.787733	3.076800
687.424000	3.406100
696.523933	2.856000
693.178817	3.061300
698.337200	2.744900
685.051483	3.376800
691.820667	2.926900
689.252700	3.075800
695.335200	2.696900
687.765433	3.080400
692.100350	2.696000
692.898117	2.619400
689.260283	2.821500
687.825000	2.891000
694.490000	2.465900
690.137500	2.685200
691.220817	2.491300
689.156533	2.594400
685.196817	2.759800
689.839667	2.465800
690.983483	2.357700
685.475250	2.685200
671.592783	3.327300
678.469150	2.916500
684.073983	2.584800
676.194383	3.056400
682.669917	2.525800
678.721817	2.748100
673.200367	3.037600
674.918950	2.906900
683.064233	2.384400
677.529550	2.700200
659.806383	3.649500
674.215633	2.747400
677.712633	2.512800
675.418483	2.645700
672.031900	2.791100
669.416933	2.868000
665.727000	3.045500
673.538783	2.553300
669.754317	2.779600
671.022817	2.715100
669.785017	2.749600
666.213017	2.838100
666.224217	2.815600
663.473983	2.898900
666.347733	2.740800
676.328817	2.142100
670.812667	2.422900
673.350900	2.178500
668.406717	2.418100
664.324933	2.634600
659.359817	2.886100
656.913633	3.031200
653.865833	3.225600
659.085350	2.789300
657.785067	2.842900
663.619783	2.460600
659.116017	2.719600
659.074150	2.672900
659.615267	2.555800
657.913183	2.623200
656.482500	2.693600
653.504550	2.859500
661.604900	2.354300
654.293950	2.706200
652.456800	2.712800
641.064733	3.353400
643.780050	3.167000
654.068250	2.522600
652.416300	2.602400
643.173183	3.145200
649.865167	2.591800
649.608933	2.603400
653.064150	2.351900
656.384333	2.136000
635.974833	3.227100
647.705050	2.510300
638.306833	3.011100
648.676567	2.376700
638.490317	2.944600
643.553433	2.640000
645.159983	2.504100
644.676100	2.493500
655.593317	1.798000
649.077100	2.125700
644.222533	2.418000
642.219917	2.546200
643.281683	2.439300
633.316183	2.871000
637.245117	2.642500
637.783417	2.592100
632.530633	2.887200
634.682617	2.618200
631.195850	2.787200
633.172167	2.606800
625.546783	3.058800
629.344283	2.826000
635.039000	2.482100
635.846183	2.369100
639.359200	2.167400
627.298850	2.795600
634.210683	2.390100
628.846000	2.698400
631.675433	2.514600
623.330667	2.873200
620.881300	2.997800
616.993083	3.151200
621.388117	2.883100
623.580883	2.739900
625.194500	2.633900
628.955850	2.334200
632.635183	2.019000
628.488783	2.235000
626.069283	2.358000
629.572433	2.122800
624.493833	2.325000
617.399600	2.711300
612.214983	3.022500
619.811733	2.544600
623.071333	2.171400
623.794733	2.094000
608.982983	2.922600
610.302017	2.809600
607.234783	2.917500
607.623967	2.910700
612.825700	2.597000
610.935017	2.688400
615.738367	2.257300
611.340917	2.494300
611.886900	2.446700
611.130050	2.506700
605.422333	2.741400
595.409383	3.291600
600.584383	3.009600
610.512700	2.382500
607.072700	2.565500
604.409467	2.702500
607.090117	2.477500
605.441067	2.489200
609.424433	2.219400
608.009233	2.257800
609.600300	2.151500
605.896333	2.373000
601.687083	2.546700
603.616817	2.325700
597.965217	2.641000
603.650550	2.294900
602.950917	2.285800
605.060583	2.069700
610.529250	1.706600
594.354383	2.612700
597.965233	2.392200
593.568850	2.627600
592.690467	2.662600
594.521667	2.414200
594.038267	2.434900
600.044400	2.070800
592.498567	2.501800
582.403233	3.105300
590.571067	2.632000
590.142667	2.519200
583.491617	2.905300
591.788783	2.424300
594.020133	2.259300
592.677683	2.242800
590.892683	2.299800
588.366133	2.390700
592.258767	2.157100
585.289350	2.540600
585.168867	2.558500
577.747967	2.965900
582.010400	2.605100
579.719867	2.742100
584.288933	2.460600
584.810717	2.417800
581.151967	2.491000
587.117417	2.114500
583.046833	2.277900
576.685583	2.653800
586.527733	2.067600
580.925517	2.400400
584.503450	2.039900
584.395417	1.995100
576.183083	2.411700
580.138150	2.158700
579.379467	2.214100
577.158850	2.306000
577.687883	2.150100
579.087217	2.014300
582.027983	1.782300
578.851683	1.980300
581.563117	1.789000
570.860083	2.422200
560.222617	2.883700
567.464550	2.474000
568.941383	2.369700
570.906550	2.241200
565.730583	2.506800
567.251617	2.374300
576.420700	1.814600
561.962000	2.644700
571.016883	2.097000
564.307833	2.431800
567.756250	2.192300
566.888450	2.192600
570.536683	1.971900
573.401783	1.743000
562.336433	2.357100
559.769917	2.492500
562.569650	2.309600
562.339550	2.170400
561.864367	2.221000
554.488767	2.612500
554.445383	2.635500
558.552017	2.304700
568.788417	1.627300
555.692117	2.327800
557.026750	2.252600
546.030117	2.915200
556.473700	2.266100
553.448500	2.384000
551.272283	2.401200
549.606900	2.485100
554.272617	2.158600
545.165633	2.692500
554.352000	2.124500
557.249633	1.916700
553.503600	1.988300
546.689050	2.389700
549.661783	2.219400
544.878833	2.497500
553.261800	1.877300
545.716950	2.295500
544.028867	2.338300
542.490933	2.430900
542.196983	2.426400
549.543500	1.969400
542.259383	2.291700
544.350417	2.105200
534.931867	2.617300
542.052467	2.175100
537.259233	2.461500
536.590850	2.483900
542.324267	2.075200
545.874850	1.805900
534.106950	2.446700
535.552017	2.356300
533.518600	2.447900
537.737950	2.161700
541.106583	1.917900
538.435267	2.001100
539.209883	1.919400
534.304350	2.191400
542.070667	1.705000
528.081917	2.405200
532.159267	2.137300
541.164817	1.594600
539.205400	1.697600
537.777917	1.716700
526.822950	2.354000
524.032883	2.439000
528.225333	2.185200
517.720500	2.799800
522.432883	2.511300
520.084600	2.527100
525.469500	2.147900
528.311067	1.954300
523.190833	2.227800
516.588950	2.629400
521.019750	2.339600
529.736967	1.728100
521.316850	2.149400
510.965733	2.705400
512.943500	2.601800
514.486200	2.510600
522.619533	2.022900
517.660350	2.284100
516.115767	2.254300
508.104050	2.711900
507.150883	2.733900
518.654400	2.046500
519.856533	1.966500
517.558000	2.110100
517.892117	1.938700
516.322350	2.007200
507.698367	2.536600
514.024300	2.130200
509.750333	2.313600
510.420517	2.226400
513.220117	2.022100
502.588250	2.662100
512.044833	2.084400
509.327317	2.210500
514.863617	1.755400
507.665100	2.142200
505.592633	2.208900
504.464950	2.255000
503.310417	2.311000
504.847233	2.215500
511.832883	1.753200
511.178567	1.679500
506.873133	1.885800
510.054800	1.694600
501.199817	2.184100
504.660667	1.925200
500.570750	2.141900
498.314033	2.236500
496.787850	2.309600
499.863317	2.119900
501.699117	2.007400
496.249667	2.193700
494.793867	2.270500
500.684583	1.874400
495.222150	2.203400
501.218133	1.714500
503.808967	1.493500
498.847650	1.756100
492.033717	2.134600
495.916617	1.911700
495.379183	1.912800
488.121350	2.220200
481.458850	2.580800
491.574683	1.944900
480.867667	2.535700
480.452933	2.542800
482.814550	2.396300
497.779583	1.448100
484.377183	2.125200
484.966317	2.074000
482.123250	2.207900
486.762283	1.922700
483.523417	2.098300
476.910033	2.458500
476.461617	2.376700
472.940533	2.608200
481.089183	2.117100
474.811417	2.502100
476.750983	2.240100
481.300617	1.948600
469.326267	2.624500
478.264083	2.053200
480.326250	1.946600
484.404250	1.691000
469.577700	2.442500
470.908300	2.313800
480.120867	1.698400
465.869067	2.542000
464.517700	2.617700
466.642900	2.472200
454.014450	3.093500
466.216367	2.360500
472.052467	1.987900
470.770283	2.053200
462.515867	2.515000
465.935550	2.266100
466.708700	2.194700
465.500650	2.230400
469.934233	1.947900
474.107450	1.690100
465.351550	2.149400
462.427617	2.209300
461.508683	2.258100
462.785167	2.131600
459.027483	2.353200
463.674367	2.066800
456.865217	2.476000
457.433333	2.336400
456.171883	2.375700
456.712383	2.270100
460.162667	2.053600
464.084400	1.825700
469.477867	1.470100
458.921667	1.929100
452.358483	2.291100
452.822633	2.255100
449.150667	2.487100
436.264683	3.201300
454.945517	1.985500
454.534917	2.005000
459.572117	1.687900
454.416533	1.971900
450.527967	2.104000
456.045767	1.766200
456.307200	1.671200
455.267117	1.699300
435.877133	2.793000
442.687350	2.368400
445.472800	2.182700
450.922600	1.836500
447.093883	2.044500
451.604017	1.765300
440.427650	2.410400
435.658600	2.708900
450.495033	1.641600
437.086000	2.396000
449.160083	1.651200
442.787183	2.011200
443.439050	1.947500
441.025417	2.112700
433.016850	2.552300
450.348367	1.462900
443.694350	1.816400
446.441833	1.618800
440.109417	1.978300
431.868967	2.459200
429.672300	2.567600
439.542783	1.875300
440.138083	1.819800
437.587200	1.943300
437.649867	1.922200
435.077550	1.905500
428.240617	2.305300
424.640883	2.517600
434.862367	1.900900
429.566133	2.034000
427.795667	2.126500
435.573733	1.623000
435.202367	1.635400
417.651900	2.629400
421.128033	2.411100
427.102833	2.040300
430.559983	1.814400
440.215433	1.142400
430.999650	1.679900
420.554667	2.275300
426.745383	1.879800
419.173433	2.289300
416.955267	2.400100
420.825417	2.093500
420.877917	2.055700
423.897400	1.870700
426.632333	1.670400
416.867983	2.185800
415.780467	2.168500
422.904550	1.702400
416.916450	2.008700
412.719533	2.235600
409.320100	2.439500
410.433000	2.363300
412.039717	2.294200
413.398250	2.186900
412.148250	2.116700
415.753317	1.914700
405.850617	2.365300
407.580850	2.204900
412.305067	1.868800
407.907550	2.142200
408.245100	2.149400
404.875933	2.313300
407.487350	2.042300
409.421633	1.871100
409.291067	1.871500
398.417200	2.487200
406.647633	1.995600
405.370150	2.070800
403.885983	2.058300
399.791450	2.230700
405.072883	1.872900
395.876200	2.382500
401.551700	2.036000
403.463350	1.903700
407.283950	1.658000
398.081517	2.193100
403.810833	1.828200
409.538667	1.291900
399.926817	1.834000
403.815333	1.565700
398.461267	1.852900
398.347533	1.795800
402.321900	1.529300
389.425967	2.287000
397.721850	1.787900
391.295767	2.010400
395.138500	1.756400
389.674033	2.086500
391.456650	1.986500
392.623933	1.777800
396.726917	1.473400
393.483833	1.645200
389.361750	1.906100
388.408417	1.942300
391.196267	1.777900
389.246033	1.906800
390.803500	1.802000
391.604567	1.662100
389.571983	1.570500
385.146783	1.836000
385.659517	1.807900
392.359950	1.385600
385.814383	1.697100
385.795450	1.704500
382.778333	1.851900
385.220650	1.691600
383.435250	1.766000
383.589050	1.744100
371.780100	2.396300
385.759250	1.545200
379.823850	1.897100
384.383117	1.618600
381.579433	1.771800
375.137067	2.133400
374.865567	2.144800
377.776033	1.984500
380.969433	1.517400
370.016867	2.102200
369.133350	2.169800
372.229850	1.986500
363.569950	2.506100
378.258650	1.604000
373.242517	1.888600
371.810917	1.960600
356.964067	2.579500
370.285300	1.763600
362.527283	2.211600
363.748267	2.145700
365.242800	2.016800
369.007550	1.738400
359.514967	2.264800
372.029900	1.506200
368.367567	1.698400
370.279117	1.521700
365.102817	1.804600
365.166767	1.733500
365.112083	1.722600
359.585867	2.050900
362.444117	1.870000
361.738083	1.888500
361.476283	1.871100
352.353167	2.404300
359.728350	1.962200
362.132583	1.609200
350.507383	2.205600
354.211100	1.975100
361.364483	1.527600
351.579017	2.104600
356.852567	1.797700
359.016083	1.665900
350.847200	2.118500
351.750867	1.952800
356.325600	1.522700
359.353833	1.315500
348.135250	1.959200
353.703850	1.602500
353.772933	1.535400
348.894883	1.803300
352.521167	1.565500
351.268883	1.629300
344.279433	1.976700
352.035483	1.475100
350.631633	1.531200
350.206383	1.545900
340.213850	2.121800
345.492867	1.775800
341.123367	1.992100
350.494133	1.436700
348.724950	1.521200
344.402567	1.732600
340.858883	1.719300
332.710450	2.130200
343.308750	1.481600
343.816400	1.416500
340.215600	1.583000
337.799900	1.724600
335.525450	1.834700
338.565283	1.630800
332.096567	1.929100
337.178900	1.617200
337.629500	1.560200
333.570250	1.759100
333.055800	1.734200
322.653233	2.255700
326.741267	2.000200
339.809600	1.193300
320.982550	2.289800
326.663300	1.830800
325.581500	1.863800
325.916550	1.788800
318.508150	2.227100
327.713750	1.671800
319.523367	2.144200
327.069167	1.681900
327.638433	1.641000
324.996683	1.779000
332.688450	1.298300
323.886333	1.549800
324.979683	1.457100
319.236383	1.786500
319.633800	1.779800
323.524950	1.487300
324.022467	1.433800
318.441383	1.720500
323.151450	1.398200
319.911017	1.546900
307.863783	2.276400
312.340617	1.938700
312.492167	1.838500
312.275583	1.818300
313.300900	1.741100
311.022517	1.834000
310.778117	1.752100
304.369800	2.089700
311.033183	1.644000
313.762633	1.470000
311.181683	1.605000
309.359733	1.691100
306.977500	1.722800
308.355667	1.609900
308.974800	1.509500
310.152617	1.419700
301.854533	1.902900
308.334017	1.504900
308.852983	1.404600
313.010817	1.123300
310.247750	1.251500
306.323917	1.507600
301.924400	1.721600
297.606783	1.922400
282.561300	2.799800
294.874383	2.046300
319.929033	0.534000
308.045917	1.225000
301.227417	1.592500
300.175717	1.587100
298.587333	1.620900
298.307250	1.583000
288.225833	2.178300
296.033317	1.698400
302.201300	1.297100
290.977733	1.830000
295.586283	1.549500
294.066083	1.617300
296.477900	1.460300
291.118700	1.727900
296.336417	1.373200
295.089667	1.371400
293.094800	1.476800
289.606317	1.652500
291.678450	1.520000
284.899417	1.787500
286.949217	1.622800
284.908617	1.662700
289.084383	1.425600
283.307817	1.755700
289.070233	1.402800
283.591700	1.593500
282.891033	1.586700
287.962483	1.275300
288.577133	1.210200
276.791550	1.853600
283.958450	1.309100
277.636783	1.667700
271.421533	1.999800
270.920667	1.991200
272.738717	1.859200
283.712367	1.178200
286.635967	0.864700
275.041083	1.537500
273.871850	1.589300
270.122467	1.804000
272.371283	1.605900
272.395217	1.559200
271.944783	1.442100
280.067783	0.969000
287.078900	0.522200
273.497050	1.287800
273.303067	1.192900
260.392017	1.911100
264.413050	1.611800
268.781783	1.340400
267.868417	1.391500
257.264100	2.050100
260.314567	1.778500
259.856517	1.777000
259.264867	1.784200
262.862267	1.522000
264.706767	1.403200
266.075083	1.295400
261.437217	1.499800
260.882233	1.446600
257.882367	1.616200
254.698783	1.792200
257.464917	1.604800
258.787083	1.487700
256.492583	1.620900
265.719850	1.055600
254.755783	1.720200
257.989667	1.453600
250.967000	1.844600
260.581600	1.225700
258.773267	1.301800
264.876983	0.868200
262.042083	1.022100
257.304433	1.271400
259.989150	1.094000
265.808750	0.601100
254.239467	1.259800
244.491617	1.819000
248.617583	1.573800
255.488000	1.040300
254.553833	1.055400
248.971967	1.331200
246.687433	1.426200
243.844500	1.604000
249.083717	1.274200
245.659850	1.442900
238.505233	1.816800
249.249283	1.166400
247.653250	1.195700
243.907433	1.383000
239.250067	1.649200
239.550533	1.638900
233.559750	1.847600
227.325833	2.204700
229.565250	2.070800
236.536017	1.667800
238.649583	1.432200
243.285383	1.107900
245.078417	0.927400
245.770133	0.867000
236.508067	1.392400
228.970717	1.825600
242.463550	0.903500
233.668450	1.400900
231.156850	1.491200
229.465100	1.575800
236.053633	1.167900
226.210417	1.708900
235.504617	1.155100
233.666050	1.215800
236.491933	1.024800
231.935767	1.298200
233.554450	1.148000
235.754033	0.927000
226.675750	1.460000
224.564267	1.483300
224.482717	1.489300
221.419800	1.647800
226.574700	1.319300
214.437133	1.903500
219.716550	1.589300
222.055183	1.437600
222.825067	1.358500
217.150850	1.572500
223.731267	1.160800
215.359567	1.604800
217.470600	1.470200
218.146250	1.418600
216.295017	1.493500
222.307650	1.124300
226.535733	0.857400
222.329400	1.023500
214.721250	1.377500
212.640383	1.497600
212.565283	1.503000
217.865267	1.181500
218.581017	1.079500
213.635467	1.343800
218.063267	1.046500
216.838483	1.108500
216.816450	1.106600
209.733667	1.481200
205.355383	1.628400
207.924067	1.466800
209.702917	1.360600
214.734067	1.026100
214.514383	0.970500
204.549400	1.541000
212.209767	0.989200
212.536267	0.938800
217.765500	0.624200
207.984083	1.192200
207.256167	1.183600
203.616850	1.367600
215.503050	0.607400
209.370417	0.960100
207.762017	1.033000
206.823483	1.070700
204.750933	1.095900
200.494700	1.293200
200.973467	1.216600
204.983600	0.949400
205.095133	0.912900
201.354583	1.128600
193.802917	1.565500
198.117517	1.170100
199.153017	1.094800
198.367400	1.099400
194.776117	1.322200
198.134467	0.960400
195.838733	1.032300
193.154517	1.164100
196.637683	0.940500
200.526950	0.695600
193.130350	1.123700
198.113467	0.771100
190.599800	1.204700
197.949500	0.759500
195.784050	0.871400
188.490350	1.289300
185.141467	1.441900
185.775717	1.356700
195.044150	0.778700
177.498533	1.750800
188.608817	1.150900
183.213650	1.411100
182.904167	1.329400
186.204217	1.089100
180.790400	1.357100
177.168550	1.558700
178.256500	1.486100
183.488667	1.145200
187.453867	0.783100
182.574550	1.026200
182.260933	1.011300
173.467333	1.537800
174.214317	1.493800
177.389133	1.299000
187.869433	0.615600
183.474133	0.866400
181.480100	0.950300
185.050883	0.718200
178.080650	0.957800
176.661917	0.996700
168.429283	1.497000
179.987867	0.800500
185.236833	0.352200
176.218917	0.853600
175.494550	0.871400
168.393367	1.228000
169.756333	1.089900
173.836600	0.833300
173.848233	0.820200
168.922150	1.081700
171.226383	0.902700
165.908017	1.129300
163.880817	1.230100
166.339250	1.096400
168.110467	0.947500
166.655750	0.921500
172.180783	0.576600
164.225667	1.005100
168.350917	0.752800
163.354817	1.042300
166.857167	0.828700
170.198650	0.466400
160.298200	1.034000
145.982283	1.836000
154.652150	1.321400
159.291917	1.024900
156.785367	1.170400
162.877317	0.670300
156.441200	1.052000
155.377617	1.098700
155.547617	1.090600
151.582433	1.216800
148.849300	1.353200
154.621167	0.967600
150.978633	1.173900
148.290750	1.318100
147.398683	1.379100
155.523017	0.853900
141.407600	1.628000
152.095600	0.982100
145.543950	1.380200
151.778433	0.971100
149.130283	0.996600
147.845367	1.060900
149.425900	0.891500
145.072350	1.131200
147.690917	0.977200
143.554117	1.190500
138.973433	1.347300
145.414933	0.936600
147.605000	0.766100
144.342867	0.936100
147.780517	0.722200
147.052000	0.764000
147.318667	0.620200
139.125767	1.076800
140.775783	0.975900
142.286050	0.872300
143.520217	0.659200
139.300583	0.893700
138.778583	0.838200
138.506433	0.849300
146.764667	0.355600
135.773867	0.980500
137.864700	0.747500
135.274650	0.868400
128.843883	1.229100
141.143533	0.492000
139.449750	0.565400
136.757567	0.737200
131.715733	1.017600
130.297667	1.046200
128.299450	1.141100
130.299350	0.953600
130.451500	0.943100
123.965017	1.323100
132.610333	0.798000
121.949817	1.281100
120.141350	1.385600
110.894483	1.914000
128.829583	0.859200
130.426083	0.647400
125.850733	0.869700
133.431050	0.353000
122.580633	0.999600
130.200517	0.518200
123.186900	0.920000
120.652533	0.990300
124.598700	0.678200
124.414783	0.664200
107.788033	1.620600
112.210433	1.354200
114.869650	1.187000
113.889317	1.189600
113.962683	1.095900
110.949683	1.261500
107.760400	1.442600
114.907333	0.963300
115.419983	0.856500
116.044467	0.798100
112.921333	0.940200
115.801967	0.764800
120.586000	0.455300
113.140433	0.885000
112.405000	0.791000
109.759467	0.929800
107.594500	1.021400
108.197900	0.977600
109.033000	0.923300
107.085033	1.045200
114.254300	0.586400
109.451467	0.875200
105.182967	1.096900
111.070850	0.759500
102.992533	1.173900
108.482133	0.787500
92.494433	1.740300
100.942267	1.209700
103.126717	1.058500
98.727583	1.299000
90.894567	1.716400
101.390583	1.015200
101.948133	0.979800
99.866333	1.062300
100.811400	0.968000
99.316850	1.062800
99.641767	1.010800
106.789917	0.459100
96.579617	1.048000
100.757467	0.731500
102.164683	0.618600
94.446317	1.069000
96.051100	0.966200
88.839200	1.251800
90.329833	1.154400
94.120617	0.934300
90.660467	1.129900
86.802950	1.280300
88.885683	1.088100
80.767367	1.527700
86.886317	1.148200
85.162300	1.247300
87.509717	1.091200
88.822300	0.942200
92.904233	0.610500
93.034417	0.564700
94.977217	0.403600
90.258700	0.647900
91.411533	0.574500
91.931367	0.517000
82.158583	0.978900
86.520833	0.699900
87.375317	0.652000
82.353633	0.940200
91.205900	0.282200
88.177133	0.411600
76.958467	1.006000
77.458317	0.960100
78.551850	0.913100
78.569350	0.862700
79.241700	0.728000
73.790883	1.033200
67.785133	1.324200
81.528317	0.496600
76.996917	0.763300
80.034667	0.549100
75.210400	0.740300
74.034400	0.756200
79.742183	0.408900
74.316767	0.723400
72.985300	0.769100
66.564333	1.046100
70.612283	0.798300
67.507583	0.981300
63.042783	1.227900
67.727433	0.944100
64.269200	1.156400
71.566550	0.669500
74.717100	0.451700
69.748617	0.739600
64.370467	1.043200
63.996050	0.964100
60.898650	1.095200
70.328233	0.511800
66.368150	0.741500
69.519917	0.545500
66.125167	0.734800
63.604650	0.720800
63.650483	0.654300
60.906450	0.762800
66.820583	0.389100
59.606150	0.806000
57.190133	0.947400
63.069233	0.583800
58.260767	0.849700
57.078500	0.901100
56.779217	0.919600
54.127867	1.070500
56.082033	0.948300
55.952750	0.816500
51.959933	0.888300
49.310133	1.022100
53.025883	0.793800
47.190183	1.137900
50.466050	0.928400
62.500083	0.166800
55.566100	0.557900
56.271850	0.465800
52.361233	0.584700
