#Y dist(nm)	Y force(pN)
3454.939283	20.136100
3470.063567	19.453700
3469.432850	19.515300
3468.277450	19.596900
3464.041700	19.849200
3473.685083	19.404700
3474.075250	19.448100
3474.539967	19.457900
3475.679617	19.417100
3471.590733	19.678900
3469.940500	19.791000
3466.295300	20.094300
3476.028100	19.665900
3475.941683	19.724200
3489.045550	18.999900
3482.563750	19.396500
3486.536917	19.140500
3494.808150	18.664200
3487.650833	19.271200
3493.650317	18.926900
3495.127517	18.849500
3496.261917	18.789800
3494.940433	19.007500
3492.006750	19.239300
3484.207317	19.772600
3498.615967	18.903200
3500.927500	18.790800
3492.278800	19.297500
3490.269383	19.513000
3489.909583	19.593700
3497.812667	19.153700
3497.132800	19.241400
3491.684783	19.579600
3492.782917	19.538900
3486.995533	19.931200
3497.798150	19.428300
3493.169983	19.732600
3499.406050	19.416000
3489.695150	20.003400
3496.618583	19.625800
3505.161283	19.138900
3505.770983	19.269100
3498.647783	19.716400
3495.320500	19.935900
3502.083017	19.539800
3503.911883	19.600300
3498.685467	19.922000
3508.233450	19.375800
3507.191783	19.459900
3505.917417	19.647500
3515.452650	19.137300
3493.679583	20.517400
3506.790567	19.749500
3512.280417	19.462100
3506.952550	19.805400
3507.932900	19.846800
3507.694767	19.945700
3507.017417	20.020700
3513.785733	19.659700
3512.976200	19.730700
3511.162083	19.851700
3512.327600	19.833300
3510.737150	20.006700
3519.180317	19.532300
3515.684483	19.770700
3510.008167	20.125100
3515.987550	19.828200
3514.257750	19.970400
3517.426683	19.941700
3517.871750	19.942200
3527.581400	19.426500
3523.003950	19.720200
3521.425717	19.826600
3514.521883	20.265700
3518.021067	20.069000
3517.812100	20.093400
3528.926217	19.584500
3521.943767	20.091500
3518.888133	20.234200
3533.547400	19.350600
3534.373983	19.300600
3526.818217	19.764800
3532.146200	19.407900
3535.316667	19.185200
3521.016500	19.998900
3532.763100	19.298700
3531.922983	19.355800
3528.212083	19.576000
3523.006750	19.848300
3524.029050	19.688700
3526.890633	19.523500
3525.234583	19.625200
3531.717250	19.230900
3518.988800	19.861500
3525.469567	19.481300
3524.315833	19.556200
3520.169617	19.811600
3526.974567	19.429100
3527.237267	19.421600
3519.783633	19.682800
3528.406633	19.115500
3527.588883	19.160500
3528.374767	19.104800
3512.274417	20.089400
3519.483017	19.672400
3522.465583	19.498300
3523.322200	19.461600
3521.989333	19.402000
3521.361400	19.427100
3522.693583	19.339300
3523.508433	19.265800
3517.294750	19.520100
3516.713333	19.518400
3519.309200	19.353000
3521.265900	19.220400
3519.338450	19.346400
3514.651700	19.647300
3514.879550	19.547100
3506.278067	19.952000
3509.146883	19.791700
3515.255583	19.432900
3510.998083	19.677400
3511.406283	19.636300
3511.270467	19.669400
3521.435917	19.041800
3514.278883	19.469200
3518.152250	19.090800
3509.962750	19.541100
3504.524450	19.862700
3502.508650	19.992900
3515.727733	19.188100
3513.479650	19.314600
3512.681933	19.377700
3509.252050	19.585800
3507.238133	19.588300
3503.777117	19.759400
3513.565950	19.168800
3506.903650	19.545600
3503.490333	19.680700
3511.382750	19.154400
3504.681650	19.536600
3508.958550	19.282200
3502.614483	19.615300
3497.459467	19.945700
3501.316433	19.666300
3501.471767	19.648700
3502.238133	19.488400
3503.149450	19.188300
3498.465517	19.468400
3492.142700	19.834500
3502.019983	19.159300
3501.311050	19.104600
3500.897733	19.100500
3502.978167	18.980000
3498.604417	19.213700
3499.167817	19.171700
3502.851217	18.927800
3506.414617	18.714200
3500.836117	19.016300
3498.341467	19.031300
3496.890867	19.089200
3492.241133	19.330900
3492.949550	19.272300
3498.330683	18.920500
3482.513767	19.879400
3492.498567	19.221500
3487.967300	19.466700
3497.337050	18.886500
3491.191033	19.261600
3495.205517	18.972800
3493.669483	19.051900
3495.049600	18.955200
3490.684567	19.214300
3484.431250	19.383600
3489.091650	18.982200
3492.351300	18.734100
3489.840150	18.896700
3489.661017	18.890600
3481.999050	19.348800
3483.931750	19.126200
3477.667683	19.382500
3479.064667	19.292900
3476.804500	19.448700
3482.649667	19.054100
3482.643417	18.930800
3470.470750	19.672500
3481.639217	18.990200
3477.223967	19.253000
3484.488433	18.812800
3481.306217	19.003400
3479.568850	19.109400
3480.421350	19.063500
3484.157867	18.845300
3486.909017	18.662000
3481.637833	18.660700
3476.705617	18.919700
3481.423200	18.591300
3477.918600	18.783300
3473.430883	18.970600
3473.953000	18.901200
3471.300450	19.048800
3469.576567	19.160300
3463.633150	19.506900
3462.019117	19.625300
3471.665833	18.986800
3465.697883	19.252000
3467.025617	19.153700
3471.696883	18.834400
3474.479950	18.680400
3467.240050	19.105200
3463.492650	19.347000
3463.044800	19.362000
3460.034583	19.495900
3461.347667	19.326500
3465.962100	19.057800
3457.741800	19.522500
3459.955267	19.382900
3471.337300	18.714900
3469.144683	18.827200
3460.534850	19.136400
3467.504700	18.676800
3465.787050	18.753900
3460.761800	19.068300
3464.551983	18.842500
3457.804783	19.242100
3463.832617	18.891500
3457.568317	19.280900
3455.156250	19.105800
3452.095717	19.287500
3462.298033	18.681700
3462.055567	18.680900
3457.321917	18.855800
3459.283633	18.689500
3460.264967	18.605600
3452.336917	19.077800
3453.765183	19.003600
3462.728567	18.466400
3451.366700	19.088400
3449.352183	19.178800
3452.960817	18.957200
3449.139800	19.145700
3447.778850	19.234200
3450.099400	19.097400
3449.371167	19.071800
3445.511367	19.129700
3448.314600	18.949200
3454.009783	18.605200
3448.729100	18.913800
3443.410283	19.231000
3443.250433	19.247500
3450.327317	18.827900
3445.795400	19.069800
3446.624483	18.731500
3446.133700	18.743400
3443.748617	18.892100
3437.416050	19.273200
3436.384300	19.384500
3442.605883	19.018000
3446.084300	18.799500
3451.137650	18.480000
3445.031500	18.697800
3438.561467	19.044200
3437.195067	19.104800
3441.707317	18.820100
3447.793717	18.454400
3441.999933	18.769900
3445.509567	18.534200
3444.673167	18.570200
3447.366383	18.214900
3442.542950	18.349500
3436.857000	18.682500
3437.918800	18.602100
3439.557617	18.427700
3435.215667	18.574700
3430.610117	18.833000
3436.357483	18.488500
3434.998467	18.539000
3435.059250	18.379800
3426.678450	18.861600
3430.689967	18.617600
3435.571550	18.309600
3427.265017	18.801800
3430.411517	18.631100
3426.754983	18.620200
3419.866067	19.029200
3416.347683	19.258000
3426.756867	18.670400
3436.977100	17.975400
3429.265167	18.436700
3423.601433	18.748300
3429.230733	18.412900
3434.102117	18.011000
3433.432367	17.992400
3441.580767	17.491100
3431.773250	18.070800
3426.865450	18.359700
3430.248650	18.173400
3422.548450	18.539700
3413.178633	19.010200
3425.809700	18.250800
3425.798517	18.234500
3423.867400	18.368700
3421.717233	18.512200
3420.708550	18.564900
3422.789117	18.438800
3421.308650	18.481500
3419.525000	18.344400
3421.536600	18.204900
3425.229167	17.969600
3414.470700	18.614700
3423.893233	18.056200
3422.237850	18.132000
3412.937433	18.702700
3411.797083	18.781000
3404.477667	18.874700
3411.836017	18.422900
3412.725467	18.362000
3410.877033	18.452200
3399.463850	19.097100
3406.722083	18.627700
3406.513283	18.660700
3404.156033	18.781300
3408.696433	18.495700
3407.066533	18.595000
3407.087817	18.443900
3404.417650	18.543900
3399.880983	18.815800
3413.590400	17.987400
3409.520850	18.238200
3406.036900	18.461400
3408.983117	18.262100
3408.022117	18.306800
3407.395067	18.311000
3408.876150	18.135000
3407.879483	18.150700
3402.955867	18.318500
3403.966750	18.253200
3397.207100	18.642600
3403.349833	18.278200
3404.009417	18.234500
3409.071800	17.912700
3405.486533	17.837200
3404.689600	17.825400
3399.481867	18.142400
3398.604883	18.201400
3403.314117	17.941100
3395.676633	18.391000
3400.784633	18.072100
3405.699883	17.780200
3392.017533	18.347500
3394.969300	18.094200
3390.099117	18.403700
3395.353433	18.117700
3389.363883	18.490000
3395.644200	18.123600
3395.478250	18.003600
3387.194350	18.401400
3390.345133	18.213700
3391.517850	18.136200
3390.161083	18.165400
3386.104983	18.275800
3384.755767	18.340100
3386.628000	18.241800
3385.387550	18.323400
3377.377967	18.801800
3382.795217	18.481700
3389.182867	18.103700
3393.783300	17.800500
3387.287467	17.914100
3375.012983	18.623200
3388.639517	17.795300
3386.156017	17.924300
3376.103317	18.513800
3376.763133	18.501400
3385.134367	17.996300
3386.576817	17.894300
3378.938033	18.183400
3379.347717	18.044900
3371.653117	18.503300
3376.992317	18.178700
3378.483883	18.064900
3376.200483	18.221200
3367.972167	18.621500
3366.155650	18.582600
3371.029500	18.301800
3374.825850	18.074700
3375.684333	18.004600
3367.196983	18.386200
3372.340667	18.075200
3368.936100	18.302700
3365.407300	18.531300
3369.794817	18.280400
3370.876650	18.216600
3373.429983	18.062800
3372.234667	18.081500
3357.474567	18.685400
3365.029267	18.186200
3366.036700	18.125700
3364.864067	18.190400
3360.323300	18.450900
3363.812117	18.250100
3356.082383	18.716800
3365.256250	18.178200
3360.191700	18.175500
3363.460267	17.924900
3344.183850	19.065600
3359.793667	18.131300
3368.307467	17.611700
3354.630050	18.417300
3357.364750	18.157200
3360.067200	18.005100
3355.474533	18.260500
3356.085517	18.216200
3366.698150	17.498100
3352.419467	18.264200
3356.849800	18.014100
3348.908183	18.487300
3352.914117	18.272600
3359.370433	17.910700
3361.087033	17.808400
3357.831683	17.835100
3349.349300	18.309900
3347.011267	18.446300
3355.043600	17.944200
3352.803467	18.056900
3357.651100	17.757900
3337.520617	18.930800
3346.451483	18.394300
3353.388467	17.980400
3345.103633	18.463600
3341.970217	18.552500
3350.861783	17.942500
3346.242100	18.186900
3360.328717	17.308700
3349.467850	17.954700
3350.910017	17.836400
3351.021100	17.700900
3347.233800	17.939400
3348.993817	17.816300
3346.349400	17.962500
3344.043717	18.059900
3348.763750	17.733000
3354.340317	17.336900
3340.461533	18.097900
3344.401917	17.798900
3343.578900	17.824500
3342.558267	17.853800
3345.071817	17.664200
3343.033467	17.723900
3338.494600	17.848200
3341.546200	17.645400
3344.767033	17.441800
3342.690833	17.545300
3336.847533	17.748700
3340.629500	17.491500
3334.618600	17.771400
3345.161217	17.134400
3347.324767	17.011400
3340.964967	17.380100
3338.325667	17.463500
3330.896100	17.901900
3332.593100	17.741700
3330.661567	17.845100
3335.896150	17.497200
3335.685517	17.512400
3328.653550	17.832000
3327.975833	17.858800
3335.319117	17.399300
3326.457533	17.915200
3330.703500	17.602200
3329.101867	17.539400
3333.874650	17.231400
3333.939517	17.162600
3329.911850	17.413800
3327.817167	17.537600
3323.833417	17.735300
3322.686917	17.682500
3321.567900	17.729700
3324.026867	17.510300
3322.847067	17.595200
3325.355617	17.449100
3325.113800	17.462400
3326.445200	17.229900
3323.939267	17.362700
3320.773483	17.535100
3316.423433	17.792800
3324.522333	17.167600
3317.002200	17.566200
3308.961233	17.990800
3313.741883	17.719000
3314.905650	17.668500
3313.470433	17.758600
3317.584333	17.399800
3319.470433	17.260900
3300.485850	18.401100
3309.690517	17.849000
3322.538283	16.996000
3307.980233	17.776000
3298.854017	18.293600
3306.762950	17.799900
3305.804250	17.860500
3307.522183	17.772100
3314.122933	17.330200
3305.874700	17.690700
3310.890900	17.360700
3304.388200	17.670600
3303.276783	17.751100
3303.642983	17.719600
3306.437867	17.540000
3306.320550	17.418600
3306.070133	17.418400
3294.969333	18.049900
3295.536517	18.029900
3303.338833	17.565100
3307.944517	17.288900
3307.049133	17.281300
3306.535583	17.309200
3303.613383	17.479000
3296.704133	17.879200
3305.321233	17.239300
3300.876433	17.460100
3299.346350	17.548800
3296.451900	17.699100
3292.181967	17.783000
3297.010267	17.493200
3293.733117	17.647700
3294.273283	17.565100
3296.278733	17.443900
3299.490767	17.233400
3290.353267	17.814500
3285.288883	18.133900
3283.657667	18.218600
3287.344050	17.955600
3290.302950	17.776500
3297.321483	17.347000
3293.640900	17.520300
3297.757567	17.201300
3295.772433	17.291800
3297.738833	17.087200
3287.616283	17.651200
3286.061200	17.742300
3292.595167	17.325200
3283.842750	17.691000
3286.848833	17.486500
3280.352167	17.822900
3283.334200	17.636400
3289.312867	17.276000
3280.783483	17.790700
3282.097533	17.693500
3274.367117	18.160100
3283.067517	17.419400
3285.248617	17.257100
3276.573917	17.722700
3273.576650	17.877300
3274.085450	17.783700
3279.780767	17.446700
3275.454150	17.711700
3269.462700	18.059100
3276.465550	17.572500
3280.121333	17.256100
3280.210733	17.241700
3281.497050	17.158500
3281.612050	17.068500
3272.364367	17.523200
3265.941667	17.911400
3266.403317	17.851400
3272.199350	17.500800
3274.009367	17.387600
3278.645067	17.081300
3275.773500	17.110800
3281.357350	16.744800
3268.253217	17.459000
3277.231600	16.916100
3272.402683	17.189800
3270.778500	17.304900
3268.001383	17.338300
3268.409683	17.280700
3256.824100	17.912400
3261.563617	17.653700
3265.105350	17.458500
3267.127550	17.345100
3270.899033	16.977100
3271.314067	16.906700
3258.178483	17.676700
3261.591883	17.484400
3260.448667	17.479700
3270.393850	16.791300
3264.417867	17.098400
3264.786967	17.049800
3259.230383	17.403400
3258.202333	17.462200
3256.268283	17.556400
3255.304067	17.469800
3250.651667	17.744300
3259.746817	17.184500
3257.279617	17.328500
3256.182167	17.384000
3256.274667	17.383700
3256.581933	17.200300
3253.352750	17.362200
3253.258867	17.353400
3252.073700	17.424300
3262.676733	16.752400
3253.449017	17.274800
3253.022583	17.157100
3254.470200	17.041200
3253.120033	17.118700
3252.408383	17.163700
3247.613817	17.334500
3249.954283	17.161900
3255.495317	16.838900
3244.085883	17.512000
3249.075833	17.222200
3241.621167	17.677100
3241.955617	17.586200
3252.580383	16.871500
3247.093767	17.174900
3246.787900	17.188800
3255.703367	16.608500
3245.543383	17.090500
3245.363933	17.091700
3243.507917	17.182400
3240.664600	17.334900
3241.890067	17.276000
3247.748567	16.906400
3234.879233	17.554300
3236.321000	17.457600
3232.047750	17.646000
3236.061400	17.397900
3245.027033	16.838800
3242.408783	16.977100
3231.845533	17.472700
3227.869617	17.727800
3245.821217	16.667600
3235.634050	17.245200
3232.078117	17.328500
3232.188567	17.297000
3230.295200	17.396700
3228.696017	17.489900
3227.489500	17.548800
3224.340850	17.735100
3227.403267	17.489600
3221.373267	17.774000
3229.037950	17.305200
3232.402633	17.098300
3226.222100	17.377200
3225.344933	17.359300
3232.555800	16.919400
3230.735667	17.001800
3230.491983	17.001700
3231.394400	16.932300
3221.225033	17.482600
3224.066317	17.198000
3223.499767	17.216600
3224.957450	17.106300
3223.935150	17.163300
3216.574900	17.597700
3227.324200	16.960500
3214.606050	17.730600
3226.704283	17.010700
3231.553967	16.667600
3225.720750	16.990200
3222.337883	17.155000
3226.855033	16.843600
3220.632917	17.144900
3226.202600	16.786500
3218.245667	17.205200
3220.091700	17.118000
3224.507167	16.731200
3217.657433	17.070400
3212.613117	17.286500
3207.446667	17.624000
3209.406450	17.538300
3212.902217	17.310800
3219.868017	16.869500
3217.293183	16.969300
3207.327883	17.531500
3212.601250	17.213100
3214.690950	17.075400
3209.204700	17.364000
3209.350683	17.344600
3216.244600	16.769400
3218.778517	16.590200
3214.531733	16.812100
3220.776450	16.425600
3215.205167	16.659500
3203.484583	17.320600
3208.887400	16.900500
3209.997517	16.818200
3219.447017	16.240100
3208.785783	16.865800
3210.255583	16.669600
3209.193717	16.667000
3210.775317	16.515500
3198.222667	17.230700
3196.402800	17.346600
3195.362133	17.391400
3201.631167	16.920200
3202.664250	16.778700
3200.080483	16.912600
3196.972883	17.078800
3203.259883	16.691800
3202.713483	16.662700
3205.909117	16.423700
3199.307183	16.794400
3197.499417	16.904300
3195.722533	17.026600
3203.283100	16.552200
3192.899450	17.039100
3193.518283	16.953100
3189.152900	17.151900
3192.703500	16.930500
3192.027267	16.988300
3196.162433	16.722100
3195.868217	16.627400
3187.633567	17.065700
3185.241283	17.167600
3193.305133	16.651000
3194.440283	16.578100
3190.358517	16.809500
3183.503867	17.239700
3187.341133	16.962700
3195.154183	16.504300
3180.598817	17.339000
3178.009767	17.490200
3190.692383	16.643500
3177.739750	17.384700
3188.530200	16.695900
3187.334950	16.758300
3187.317700	16.744200
3187.467200	16.731300
3181.441217	16.936400
3186.860783	16.565500
3179.550250	16.930500
3184.637733	16.617400
3173.853917	17.264300
3183.488217	16.697600
3189.127200	16.267200
3184.505200	16.531200
3184.127533	16.549600
3181.154333	16.721800
3170.264600	17.234100
3176.530867	16.747400
3185.711183	16.122100
3185.102983	16.173400
3174.710400	16.801200
3169.870650	17.105700
3172.564167	16.872800
3171.774133	16.799800
3183.319933	16.077700
3171.570983	16.732600
3178.990967	16.278200
3179.033500	16.276800
3178.573650	16.279500
3180.941367	16.000700
3179.890850	16.064400
3176.401300	16.258500
3177.211417	16.213700
3165.944567	16.735100
3161.476133	16.964800
3162.590667	16.838900
3166.630883	16.598500
3158.360600	17.116200
3163.839283	16.778800
3158.120417	16.982300
3167.917667	16.386800
3159.628600	16.871100
3166.232600	16.488000
3156.867283	16.960300
3160.336900	16.685100
3165.591367	16.353800
3167.329250	16.230300
3153.021333	17.087200
3152.797383	17.083900
3152.791300	16.998000
3159.084017	16.514600
3160.537600	16.401600
3158.683950	16.490700
3154.789000	16.735800
3152.764217	16.858700
3154.132800	16.750800
3153.905750	16.660800
3155.803367	16.542500
3159.272083	16.278700
3149.962550	16.815300
3148.849217	16.900100
3150.284833	16.832200
3154.569783	16.426300
3153.591883	16.476400
3145.868083	16.939000
3150.514467	16.648700
3157.163533	16.161100
3159.377600	16.004100
3150.617850	16.510200
3148.847883	16.588600
3149.161150	16.518600
3152.534617	16.293200
3147.072133	16.596100
3147.844450	16.517400
3127.340400	17.690400
3140.232267	16.922600
3151.870883	16.174600
3152.330050	16.043400
3138.432167	16.812500
3149.150967	16.084400
3146.612817	16.211600
3145.859150	16.258500
3138.507150	16.658400
3132.774733	16.853800
3133.844617	16.768100
3141.133667	16.280600
3141.867083	16.240300
3136.322467	16.549100
3130.890500	16.899300
3130.370450	16.887300
3132.217717	16.780100
3140.766433	16.185100
3141.334217	16.118900
3141.548217	16.077500
3139.687100	16.180200
3130.682417	16.566200
3132.732867	16.448600
3140.673800	15.966900
3136.384350	16.194900
3129.210883	16.511200
3128.643467	16.479800
3130.470000	16.269000
3125.739133	16.588900
3124.456017	16.670600
3132.339467	16.225100
3121.465217	16.829300
3125.180233	16.489300
3120.553833	16.742500
3117.287533	16.891600
3129.667300	16.173000
3132.959733	15.953800
3131.703967	16.011500
3123.626300	16.330800
3121.508917	16.465700
3115.385617	16.798700
3122.284150	16.398900
3125.890350	16.115700
3120.188083	16.423900
3126.463100	15.981600
3122.804317	16.194200
3128.230333	15.859900
3125.550733	16.026400
3119.540417	16.281200
3115.549583	16.445500
3116.048483	16.387900
3123.229483	15.904900
3112.187050	16.543200
3120.348017	16.069700
3118.119350	16.116900
3113.589967	16.365500
3110.058650	16.565700
3124.420200	15.688800
3111.237633	16.480300
3109.178817	16.547000
3110.483867	16.465100
3116.725267	16.060100
3114.883567	16.158800
3109.120000	16.487400
3108.740400	16.500600
3106.209383	16.496800
3109.254833	16.295500
3102.272417	16.699100
3107.716217	16.363400
3101.985283	16.590400
3101.432333	16.565500
3097.756733	16.742800
3099.035817	16.638200
3095.513950	16.786500
3097.331900	16.655100
3107.714083	16.040200
3102.817000	16.318200
3102.276233	16.291600
3102.900817	16.156400
3103.399667	16.106000
3095.503850	16.580700
3102.723883	16.114900
3097.585033	16.295200
3100.264317	16.110800
3099.354050	16.131600
3105.964183	15.741700
3096.497217	16.283000
3095.702383	16.331200
3092.706350	16.345200
3105.292983	15.583900
3091.098250	16.379100
3088.769583	16.510300
3091.285850	16.349400
3093.236650	16.224900
3091.035167	16.232300
3084.016283	16.620400
3093.283067	16.080200
3096.628833	15.862000
3092.950000	15.986700
3091.285917	15.993500
3097.125000	15.620100
3093.027717	15.848300
3085.484867	16.321400
3081.965283	16.514200
3092.131967	15.858500
3086.282867	16.099700
3088.947167	15.887600
3088.912367	15.850100
3087.572717	15.917600
3084.189900	16.116900
3077.724267	16.495700
3084.772167	15.923900
3072.792800	16.647300
3075.045183	16.507900
3067.799583	16.950100
3076.481267	16.303700
3078.236783	16.184200
3071.828400	16.481400
3078.408150	16.099200
3077.481183	16.149400
3076.734333	16.202800
3075.558400	16.210500
3077.261583	16.083400
3075.111400	16.224900
3081.393883	15.834700
3075.344383	16.165600
3081.179450	15.778800
3078.778933	15.886600
3075.843833	16.012600
3073.153683	16.171900
3074.025183	16.094800
3066.657250	16.500600
3072.727083	16.072900
3065.351417	16.485500
3070.556717	16.068800
3073.548117	15.892100
3079.981750	15.466500
3077.951583	15.572800
3073.916833	15.643900
3063.163167	16.244000
3068.435267	15.855200
3065.338233	16.021600
3067.173333	15.917800
3065.717750	16.021800
3067.538833	15.814000
3063.001350	16.080900
3068.119083	15.786400
3062.731183	16.099600
3066.627100	15.819900
3068.472733	15.680200
3057.788850	16.269000
3064.227450	15.868200
3071.249717	15.408800
3060.760533	16.048000
3056.259833	16.215700
3055.198800	16.213200
3053.254983	16.296700
3064.159183	15.608800
3059.910617	15.861800
3062.076583	15.674800
3057.911167	15.892100
3051.251700	16.147500
3056.878000	15.802500
3049.535367	16.251200
3043.190567	16.637000
3049.195117	16.138100
3051.848667	15.959000
3044.676817	16.310900
3049.551000	15.997500
3040.018750	16.574400
3044.362433	16.304200
3044.563883	16.166500
3041.774900	16.305000
3040.223367	16.310900
3036.857100	16.548000
3042.855333	16.167400
3045.399533	16.015300
3044.207550	15.943800
3047.388750	15.710400
3050.734800	15.487500
3054.307633	15.254200
3042.022350	15.901800
3039.501450	15.993000
3033.216950	16.349400
3043.033300	15.727200
3046.873450	15.504000
3039.581650	15.930300
3030.661533	16.462000
3038.152317	15.929000
3033.267867	16.210100
3038.160833	15.838900
3042.186350	15.579300
3041.427533	15.591100
3035.937567	15.917300
3034.994317	15.815000
3034.011633	15.822700
3041.980533	15.255400
3034.765667	15.668600
3027.154233	16.122700
3036.546450	15.561600
3035.526567	15.480500
3034.036917	15.571400
3029.409500	15.827700
3025.605267	16.065200
3026.104900	15.950100
3028.391000	15.710400
3022.256317	16.059800
3024.499517	15.914900
3025.957933	15.793900
3018.035117	16.187300
3014.873850	16.358100
3021.267183	15.977200
3019.468183	16.093300
3022.652533	15.813700
3024.962567	15.652700
3012.144100	16.412100
3022.098700	15.811200
3016.209100	15.997500
3020.742950	15.717900
3023.147933	15.552700
3027.062867	15.328100
3024.840750	15.336600
3016.579600	15.792000
3009.711333	16.128400
3011.626633	15.998200
3010.291917	16.080200
3016.036400	15.698100
3018.473133	15.455500
3006.705900	16.089300
3000.006083	16.468300
3007.877150	15.979800
3006.506150	16.067400
3010.329833	15.828400
3009.096300	15.895800
3007.160183	15.967600
3003.806617	16.166000
3009.316600	15.839700
3009.913000	15.769800
3003.117417	16.046900
3000.776267	16.158800
3003.595583	15.938500
3013.842700	15.289200
3007.772750	15.647400
3007.107583	15.683500
3004.530100	15.706200
2998.043817	16.080200
3010.603050	15.293400
3006.279783	15.530800
2999.291750	15.924600
3003.390733	15.672400
3008.283000	15.249000
3000.248150	15.674700
2999.102433	15.718300
2993.806117	16.004000
2998.025500	15.741900
3006.284417	15.231800
3003.065750	15.372600
3003.944700	15.145200
3003.517333	15.152800
3001.209367	15.292700
2999.861283	15.307600
2994.574317	15.515000
2995.215150	15.449100
2991.658817	15.611900
2992.606783	15.551200
2987.124917	15.883700
2990.351517	15.705500
2985.203333	15.861700
2990.961100	15.492000
2984.438567	15.844100
2992.504300	15.354900
2983.618600	15.891300
2992.727100	15.350400
2990.596550	15.316500
2988.729917	15.410000
2987.987250	15.426300
2983.239833	15.710500
2975.202267	16.147100
2983.828600	15.614700
2979.841867	15.833600
2976.774650	15.986400
2977.526250	15.946800
2985.157217	15.506300
2983.027150	15.584100
2985.945917	15.313100
2984.423533	15.378100
2980.012317	15.601100
2981.231033	15.501100
2978.859650	15.637200
2985.887283	15.218200
2992.121917	14.673200
2985.506667	15.036800
2981.273533	15.244900
2982.525900	15.127200
2972.802783	15.568000
2973.580983	15.488500
2963.512300	16.025100
2971.902183	15.514300
2973.918483	15.371800
2977.342783	15.167500
2966.498233	15.665800
2966.464317	15.677600
2958.142783	16.185100
2972.932367	15.311300
2971.189067	15.326600
2973.128650	15.130500
2970.563200	15.249900
2972.820200	15.080100
2973.380683	15.030400
2969.553550	15.254400
2966.407150	15.417000
2972.407567	14.909900
2962.715583	15.464500
2970.568967	14.955500
2968.195583	15.078400
2965.940300	15.191400
2964.952917	15.263600
2957.980433	15.549100
2967.046250	15.020700
2963.725683	15.117700
2963.933300	15.109200
2952.781833	15.775900
2955.407000	15.624900
2957.199533	15.393100
2961.306850	15.093000
2951.425083	15.646600
2957.305283	15.290500
2951.594883	15.617200
2956.089283	15.348700
2961.397850	14.979900
2953.184267	15.342800
2948.345150	15.618600
2950.314467	15.504500
2952.908850	15.316500
2946.304083	15.556300
2937.216450	16.084200
2952.193250	15.162300
2951.795183	15.177400
2952.401200	15.141300
2948.720483	15.350200
2951.001867	15.073100
2956.308650	14.703900
2947.806667	15.161600
2947.435167	15.172400
2938.276117	15.722900
2943.994933	15.392200
2938.514450	15.605100
2940.764600	15.478200
2943.234550	15.348000
2952.488600	14.793000
2946.836683	15.023500
2941.982050	15.251400
2952.318617	14.496200
2944.504167	15.000200
2945.207500	14.927700
2942.402633	15.078400
2944.475767	14.789900
2936.505500	15.216000
2937.271133	15.176500
2950.049533	14.407300
2938.951600	14.978700
2935.161383	15.112000
2934.556700	15.116700
2933.917700	15.115800
2928.000233	15.474700
2931.354000	15.301500
2929.236267	15.437000
2939.957183	14.678200
2937.552017	14.785400
2934.382033	14.905300
2933.383983	14.971000
2927.395233	15.295900
2936.024750	14.799600
2937.766750	14.536800
2931.788483	14.888500
2932.764733	14.823100
2925.619283	15.265600
2928.728183	14.985400
2920.255583	15.449200
2928.024000	14.978700
2929.035550	14.900700
2922.692750	15.280500
2926.790083	15.037600
2923.506483	15.067900
2925.189050	14.953800
2925.533033	14.936800
2925.815283	14.898100
2921.132600	15.085200
2924.046683	14.814100
2921.131067	15.001100
2922.848033	14.869900
2919.635133	15.048400
2916.820633	15.190900
2917.691600	15.120300
2916.046317	15.218000
2917.787217	15.098900
2909.388600	15.489600
2911.346717	15.357800
2913.962633	15.208300
2919.197617	14.886500
2918.751883	14.753500
2914.489833	14.988400
2911.106517	15.134600
2915.324900	14.873100
2906.636100	15.385200
2915.171583	14.894800
2915.814183	14.740900
2913.741767	14.786600
2905.582683	15.230500
2909.233100	14.989200
2903.941450	15.289200
2904.008017	15.303200
2902.665000	15.383400
2906.197733	15.177400
2908.146050	14.971200
2910.324750	14.706000
2902.378967	15.171500
2916.220967	14.350400
2912.209500	14.594400
2909.057400	14.795700
2907.752183	14.863300
2901.704333	15.199000
2906.413650	14.913300
2909.538233	14.701900
2907.878083	14.803900
2903.351733	15.081400
2898.977017	15.328700
2911.270017	14.617700
2906.932050	14.820600
2903.365867	14.501900
2897.424200	14.840400
2887.946067	15.366800
2890.110567	15.238700
2894.329517	14.924300
2894.978717	14.889200
2893.140200	14.998500
2890.182150	15.148800
2889.025933	15.226300
2888.969467	15.223700
2897.254467	14.737400
2898.567817	14.661800
2893.077217	14.995100
2899.754967	14.570300
2898.989800	14.268000
2893.302267	14.556200
2889.484550	14.739900
2884.200033	15.053500
2895.225017	14.305400
2888.602267	14.627600
2892.060383	14.410900
2894.409083	14.283100
2895.874167	14.117000
2889.994350	14.356500
2874.824733	15.238300
2886.485533	14.556100
2884.649117	14.669300
2886.960567	14.527100
2884.817733	14.652100
2879.233850	14.997600
2873.024483	15.322600
2874.948350	15.000300
2876.093000	14.945100
2871.988567	15.194300
2876.812267	14.914400
2880.832550	14.663400
2887.284267	14.282000
2882.320917	14.295500
2878.518450	14.492400
2874.643267	14.715800
2877.323683	14.541400
2871.577683	14.831800
2873.037733	14.726200
2867.541100	15.033300
2874.512033	14.614000
2864.477483	15.212500
2872.873233	14.700700
2862.908333	15.086200
2865.482883	14.926300
2866.172383	14.884300
2868.532617	14.723000
2870.436217	14.511500
2863.764583	14.823100
2860.679750	15.022800
2863.326883	14.883700
2863.888317	14.870300
2871.183050	14.425500
2863.772700	14.864100
2861.506067	15.002300
2867.999983	14.605900
2868.132117	14.474000
2857.446117	15.062600
2861.315067	14.811500
2868.895533	14.346100
2864.901517	14.554400
2864.301283	14.571700
2870.097067	14.179700
2863.676217	14.559800
2857.939917	14.878400
2867.220217	14.311100
2860.957867	14.366300
2855.820717	14.537000
2851.379150	14.811600
2849.570767	14.953400
2858.437967	14.443700
2861.882383	14.244400
2848.736500	15.027300
2852.964600	14.778300
2860.352733	13.982200
2854.274533	14.361100
2845.692283	14.864800
2853.919567	14.354900
2840.075883	15.092500
2844.330583	14.776600
2847.552850	14.587800
2842.076567	14.913800
2849.621050	14.409600
2846.798483	14.451700
2844.928067	14.586800
2844.851033	14.580700
2841.541417	14.783900
2842.946133	14.693800
2842.739650	14.720700
2843.106567	14.677100
2845.117000	14.560500
2842.874433	14.679700
2845.115000	14.553600
2842.377033	14.603500
2844.074283	14.446000
2837.154617	14.824400
2843.003183	14.455600
2844.353167	14.371700
2843.027067	14.419100
2841.410500	14.339700
2838.968700	14.402400
2847.424400	13.882500
2835.126650	14.581500
2828.120317	14.973800
2836.283500	14.470500
2841.475250	14.115000
2837.662617	14.147000
2834.494100	14.311500
2834.103917	14.303600
2828.183450	14.646000
2828.522517	14.577500
2829.171000	14.523600
2830.163217	14.453600
2835.130850	14.157300
2839.281217	13.905200
2834.971517	14.150000
2835.090383	14.113300
2829.053017	14.464700
2830.577600	14.346000
2819.938500	14.968200
2820.696833	14.618800
2823.265400	14.381400
2815.989167	14.804900
2818.416183	14.666800
2831.141100	13.893000
2818.915900	14.612100
2817.750900	14.475900
2819.446183	14.331400
2808.946017	14.927600
2816.417350	14.479500
2815.140300	14.543400
2819.873950	14.250600
2816.393917	14.465600
2816.404000	14.501700
2809.280750	14.923500
2806.558900	15.101400
2816.665433	14.301700
2815.301000	14.198700
2813.637467	14.272400
2812.244183	14.357800
2812.951167	14.290700
2808.578383	14.570800
2810.986267	14.325500
2811.726367	14.111300
2809.906800	14.206500
2808.585217	14.267000
2809.588667	14.209100
2814.338883	13.853800
2801.172267	14.644400
2808.503217	14.188100
2814.336550	13.842300
2815.319483	13.756600
2813.197867	13.856900
2808.022267	13.980800
2807.341733	13.980700
2810.593300	13.773000
2803.210333	14.200000
2810.604450	13.758600
2803.637717	14.171000
2801.180050	14.307300
2802.007933	14.264800
2805.208633	14.083300
2796.961633	14.599300
2793.072033	14.584300
2801.415983	13.954600
2795.397167	14.293100
2802.206033	13.887700
2796.149417	14.251700
2789.002250	14.681100
2786.923167	14.779400
2796.875617	14.120600
2801.039533	13.834600
2795.832783	14.101000
2793.837317	14.189300
2788.019083	14.334400
2792.958817	14.031800
2787.966900	14.271300
2787.790250	14.260500
2796.139267	13.714700
2792.790583	13.929700
2788.264083	14.162500
2788.098600	14.165100
2791.583900	13.822500
2794.203383	13.627900
2778.934117	14.497700
2781.881150	14.328300
2779.536233	14.474500
2784.609483	14.178700
2787.215450	13.914000
2784.749383	14.060800
2777.043850	14.501400
2783.580683	14.113900
2786.337100	13.844400
2791.122533	13.462000
2785.029683	13.791700
2784.954583	13.759900
2782.535167	13.881800
2781.849667	13.911500
2781.427950	13.864500
2774.994133	14.125900
2775.886033	14.039500
2771.845433	14.203300
2779.467233	13.758100
2772.466500	14.153700
2778.170583	13.787200
2779.212017	13.561400
2771.403000	14.005800
2776.740833	13.657000
2773.158767	13.853300
2762.454717	14.362400
2766.100583	14.104000
2764.196517	14.178800
2766.264917	14.039300
2757.293383	14.569000
2765.178900	14.122200
2766.567317	13.879400
2776.590283	13.278700
2763.538950	14.045100
2765.627833	13.900900
2764.148933	13.900000
2764.776300	13.783500
2759.679483	14.069800
2754.726950	14.349300
2764.731583	13.777600
2764.816450	13.781400
2767.562300	13.554300
2766.898183	13.452100
2758.960417	13.897400
2763.931000	13.585800
2768.723800	13.276500
2755.797217	13.955900
2762.804717	13.529300
2757.439650	13.802100
2753.195017	14.042300
2759.942467	13.612700
2750.021683	14.193400
2747.643133	14.330800
2758.596617	13.692500
2753.900467	13.788800
2749.279217	14.050700
2750.422733	13.957000
2748.890150	14.035800
2751.246250	13.779900
2752.501217	13.662500
2742.249633	14.223400
2745.646050	14.002500
2750.632817	13.677200
2749.994483	13.708000
2750.831783	13.598800
2746.013767	13.783400
2740.173650	14.123100
2742.523650	13.988700
2738.639883	14.234800
2737.512050	14.177400
2748.428950	13.506600
2746.149100	13.600800
2742.696083	13.794100
2742.685233	13.797700
2735.825917	14.220200
2738.203250	13.924200
2740.412867	13.786100
2742.226267	13.643900
2735.867000	14.013600
2735.884167	14.010500
2728.886567	14.446100
2734.581250	14.063100
2735.207883	14.009500
2732.441533	14.111500
2736.906783	13.864000
2738.768583	13.724800
2737.788733	13.775200
2735.336450	13.740900
2733.080217	13.858700
2732.588100	13.886100
2738.318667	13.520000
2733.706400	13.695900
2727.969900	13.964700
2730.914133	13.774000
2732.311867	13.666700
2737.214567	13.371500
2723.317700	14.183100
2725.767000	14.021100
2725.314250	14.009400
2723.657517	14.112200
2724.561567	13.997900
2717.702000	14.398500
2728.512750	13.742100
2729.002167	13.676300
2725.379200	13.719900
2726.551933	13.625500
2724.572767	13.718600
2723.176083	13.796800
2721.921067	13.712300
2717.654817	13.924100
2727.378400	13.292400
2722.237533	13.555600
2718.823050	13.730400
2717.226767	13.837400
2712.116400	14.016900
2714.955433	13.805800
2713.063417	13.845800
2715.667850	13.711800
2716.556533	13.655500
2721.802467	13.311500
2719.523500	13.345800
2722.157217	13.087400
2714.635383	13.500400
2706.902350	13.964700
2709.284333	13.786900
2707.955900	13.710600
2713.831367	13.346600
2707.582167	13.691900
2712.331183	13.408000
2713.838800	13.305600
2714.289617	13.263200
2713.964300	13.080000
2705.691033	13.557700
2709.616800	13.270800
2706.369700	13.464900
2704.061467	13.595300
2703.574217	13.616900
2706.491083	13.308700
2699.897767	13.704200
2705.660950	13.363200
2701.798750	13.599900
2700.090000	13.538100
2695.321883	13.768900
2708.626017	13.001300
2698.831200	13.559100
2700.664267	13.428800
2691.761850	13.941600
2701.221500	13.273200
2695.669150	13.526700
2700.958850	13.189800
2697.425317	13.346900
2694.096850	13.539600
2693.928617	13.541600
2699.391433	13.164700
2691.008983	13.489900
2697.245083	13.105900
2694.762167	13.247900
2692.415500	13.389000
2695.691600	13.067100
2691.725533	13.277200
2689.237800	13.369800
2686.941150	13.489800
2685.606117	13.570700
2688.863950	13.381200
2692.238950	13.111500
2686.904600	13.411500
2687.788500	13.254900
2695.411283	12.832900
2685.049483	13.417000
2694.923083	12.821800
2675.723117	13.814300
2683.535000	13.352100
2674.909150	13.851000
2682.000217	13.410800
2679.840900	13.415700
2683.375800	13.160700
2688.764200	12.817800
2674.277400	13.635300
2671.185883	13.823200
2678.721183	13.388500
2688.833333	12.669400
2689.049367	12.561800
2677.844017	13.204400
2682.803900	12.886800
2686.353250	12.637200
2669.668350	13.470000
2665.144783	13.727500
2674.841433	13.097500
2673.868717	13.152800
2669.791417	13.397000
2672.203550	13.262100
2677.180483	12.890500
2671.333683	13.194700
2674.861267	12.922700
2673.664433	12.944800
2672.077783	12.989800
2662.164200	13.596000
2671.033500	13.008000
2663.119217	13.445900
2670.599850	12.917400
2663.160000	13.355400
2660.826183	13.482100
2666.828467	13.127600
2662.671483	13.369000
2668.321117	12.902300
2659.705033	13.391500
2660.170000	13.305600
2663.208767	13.103600
2664.458517	13.032200
2660.531950	13.249500
2657.025617	13.370900
2660.503417	13.155200
2659.345900	13.202400
2661.076517	13.101800
2660.777483	13.038100
2664.630367	12.770600
2659.662417	13.007900
2658.582867	13.052600
2671.486217	12.238700
2671.044800	12.270900
2664.081717	12.554900
2660.006350	12.731400
2645.765067	13.499600
2647.352767	13.403600
2661.406583	12.564700
2653.971983	12.982300
2648.793217	13.191200
2649.699333	13.036300
2650.063350	13.023000
2647.854367	13.138400
2647.468583	13.107100
2648.243950	12.948000
2642.976550	13.238100
2652.436600	12.633900
2643.684883	13.136500
2640.127700	13.347900
2638.205967	13.486700
2638.718450	13.481700
2646.062583	13.031500
2651.910100	12.583500
2650.314433	12.651400
2650.685633	12.616600
2647.994983	12.761800
2633.639700	13.426200
2640.291450	13.014300
2640.561500	12.997800
2641.845667	12.915500
2631.409467	13.421300
2633.148217	13.249100
2627.546517	13.510100
2634.757883	13.069000
2636.099750	12.959400
2632.175083	13.220500
2638.209000	12.809400
2637.615800	12.769200
2633.138450	13.008300
2624.818233	13.464400
2630.867783	13.101700
2629.880233	13.141600
2633.043467	12.931700
2626.377183	13.258300
2618.732433	13.710100
2620.384933	13.615000
2621.984517	13.535300
2613.979450	13.861800
2625.225317	13.130900
2623.798000	13.145100
2623.439550	13.132500
2623.567233	13.123900
2627.738217	12.871700
2627.629300	12.714300
2618.354633	13.218400
2628.640417	12.515300
2622.350217	12.893000
2613.917800	13.401900
2617.096683	13.219000
2614.070767	13.247900
2614.504100	13.193400
2616.049500	13.103100
2615.324283	13.126900
2618.053267	12.915200
2615.058317	13.043000
2614.902700	12.997800
2615.750983	12.907900
2618.098300	12.765300
2609.283617	13.271300
2613.435733	12.995200
2610.455233	13.039600
2615.885567	12.694100
2602.004800	13.538700
2620.239250	12.461100
2613.824033	12.747400
2614.758667	12.663200
2610.709933	12.814300
2603.388733	13.224100
2611.579000	12.723900
2614.729300	12.511500
2604.769433	12.965500
2601.581333	13.093000
2604.072617	12.971600
2608.864900	12.653400
2598.624167	13.259000
2605.152717	12.869000
2601.930383	12.954100
2596.379133	13.264900
2606.570000	12.623700
2596.885083	13.173700
2598.041750	13.028400
2600.569800	12.759000
2600.284300	12.771300
2605.794367	12.390500
2604.078400	12.486900
2602.623233	12.570100
2596.741283	12.874600
2596.171717	12.729500
2595.278600	12.744300
2589.115117	13.106600
2588.909983	13.118500
2584.939967	13.351700
2598.403333	12.541300
2595.256867	12.716000
2589.584967	13.045100
2585.345417	12.999800
2589.310400	12.716400
2594.587067	12.333500
2582.953900	13.005900
2585.087783	12.867400
2583.338417	12.989900
2580.465283	13.017100
2597.851583	11.961100
2584.912567	12.719900
2580.266583	12.996100
2580.283367	12.891200
2576.701117	13.045400
2579.413500	12.917400
2582.473317	12.706100
2578.323783	12.945400
2580.499500	12.807300
2572.967017	13.138100
2572.854117	13.039400
2574.578900	12.927900
2575.022233	12.899800
2569.928983	13.190200
2567.742517	13.328600
2577.724867	12.737300
2574.321033	12.925300
2575.322533	12.798400
2578.494183	12.365500
2576.094617	12.487700
2578.118750	12.368400
2578.720217	12.313400
2572.474167	12.674600
2566.118717	13.039700
2570.209267	12.608000
2580.318167	11.966000
2575.127633	12.261100
2578.547083	12.053500
2575.379833	12.243400
2573.917950	12.319500
2568.021083	12.637900
2567.569800	12.675900
2566.845283	12.631000
2567.661817	12.534500
2567.503450	12.482100
2567.504833	12.474400
2570.750817	12.256100
2569.294500	12.336300
2564.789350	12.503100
2564.338700	12.381300
2554.604217	12.933800
2557.511367	12.740000
2561.571567	12.496400
2562.884517	12.394400
2561.058750	12.486300
2560.633650	12.492600
2553.835733	12.826000
2562.399600	12.063300
2556.873783	12.361900
2558.685667	12.250700
2551.075350	12.701700
2547.976383	12.816100
2553.455300	12.482100
2556.839567	12.232700
2547.636700	12.767700
2549.799600	12.640200
2550.292283	12.617800
2548.641600	12.637200
2546.919317	12.700700
2551.663250	12.403800
2548.943250	12.566700
2552.663433	12.307300
2548.602017	12.534500
2545.083250	12.733800
2553.477467	12.224000
2547.014867	12.384500
2542.386783	12.508600
2532.931917	13.052600
2535.834067	12.855500
2533.693183	12.985600
2530.116117	13.205300
2536.942000	12.794700
2531.064100	13.149000
2533.788583	12.984700
2541.240117	12.540800
2538.967717	12.680600
2546.926750	12.194400
2545.958667	12.232400
2545.674800	12.244500
2548.489033	12.073000
2550.343450	11.924400
2538.206733	12.640900
2545.847400	12.167400
2540.434333	12.475300
2534.394350	12.317700
2538.472583	12.063100
2538.148400	12.073500
2531.797883	12.454600
2525.870500	12.440100
2530.442283	12.141400
2529.149500	12.202800
2533.518100	11.933700
2526.646617	12.256100
2524.131750	12.319500
2513.746317	12.956600
2519.592367	12.625700
2520.428950	12.483600
2522.100183	12.299200
2516.132333	12.639400
2516.025150	12.627600
2519.981883	12.390100
2521.791733	12.266500
2520.769667	12.323300
2511.310450	12.898200
2517.078733	12.573400
2515.931133	12.631600
2509.218383	13.035100
2515.510500	12.294300
2522.451650	11.871000
2516.440650	12.227400
2518.593233	12.096400
2515.310517	12.160400
2513.016750	12.306600
2516.885850	12.079500
2504.519333	12.826000
2517.906367	11.894600
2512.168183	12.196600
2511.753917	12.152600
2504.189700	12.587700
2500.091967	12.843200
2505.954300	12.502500
2517.182350	11.821200
2510.837517	12.175400
2511.264250	12.156000
2509.078250	12.269100
2507.084817	12.299900
2510.476800	11.830500
2504.706517	12.156200
2505.830583	12.035500
2504.295900	12.110100
2506.044800	12.004800
2502.754667	12.213800
2505.631967	11.858300
2499.979917	12.151700
2507.607933	11.631700
2503.154750	11.843700
2499.091133	12.080800
2486.596667	12.841400
2494.200300	12.359700
2495.528133	12.273700
2492.800500	12.429600
2498.314300	12.089100
2492.072183	12.195400
2484.411850	12.657300
2490.601167	12.253400
2497.586033	11.838100
2496.128967	11.763500
2490.792833	12.091600
2491.009117	12.071600
2489.197750	12.185700
2490.208567	12.059000
2489.505300	11.994000
2488.371283	12.034000
2493.745383	11.695300
2483.954617	12.281900
2487.766667	12.045200
2480.824500	12.435300
2482.908067	12.143900
2482.890950	12.134400
2479.886000	12.318000
2484.509000	12.039600
2486.713500	11.884200
2485.533117	11.960000
2479.077533	12.343600
2482.401250	12.128700
2480.977650	12.217200
2483.932217	12.027800
2474.980300	12.226800
2473.832683	12.253900
2473.290883	12.281500
2483.502567	11.671100
2476.832800	11.943900
2479.863050	11.701200
2482.275267	11.538800
2473.980333	12.029800
2482.270667	11.530400
2477.560583	11.797900
2486.584550	11.232300
2476.556683	11.817400
2473.295650	11.855100
2468.914633	11.953000
2470.450000	11.821200
2473.435200	11.624700
2469.735500	11.815200
2469.111183	11.860000
2467.573000	11.897100
2465.273283	11.868400
2464.964750	11.873700
2463.773283	11.914600
2464.906483	11.851600
2463.019333	11.990200
2464.916867	11.868800
2462.866567	11.990600
2463.369400	11.960400
2460.076100	12.036300
2461.960550	11.917200
2459.353783	11.991700
2463.737050	11.712300
2459.032350	11.831700
2456.575533	11.917600
2463.055400	11.436600
2457.707667	11.767700
2452.379967	12.076700
2461.599067	11.525600
2452.887867	11.984300
2451.331367	12.034700
2458.072650	11.629200
2448.958517	12.161600
2443.992467	12.379400
2438.420683	12.625000
2448.347033	12.038500
2444.574533	12.248500
2442.640250	12.312600
2437.648833	12.493900
2441.261983	12.249700
2446.103500	11.954100
2449.681950	11.720100
2448.969767	11.767100
2445.154500	11.993100
2437.160383	12.394000
2436.796583	12.402400
2445.286583	11.900500
2447.948750	11.718900
2449.961733	11.498500
2445.894433	11.698300
2440.421800	11.998200
2445.699500	11.675100
2446.929300	11.591100
2443.571000	11.765100
2438.565767	11.978600
2440.268367	11.901500
2446.286417	11.526800
2439.417783	11.920600
2437.815650	11.810700
2438.405783	11.609500
2441.334233	11.401600
2439.255333	11.482900
2440.851217	11.359700
2433.014183	11.818600
2435.065333	11.643700
2434.259933	11.534500
2434.876117	11.489900
2433.668117	11.546600
2428.934183	11.816500
2424.580700	12.079800
2428.716200	11.818800
2433.016633	11.560900
2431.565700	11.637600
2431.701533	11.606200
2430.043383	11.687500
2422.075567	12.006500
2426.554283	11.726200
2427.221317	11.654600
2427.482733	11.617900
2429.164267	11.273600
2419.488650	11.819400
2418.272300	11.877900
2422.833900	11.591100
2418.604600	11.686500
2428.277967	11.036900
2421.708150	11.408100
2421.601150	11.397000
2422.753833	11.308600
2423.759317	11.234300
2420.188283	11.433100
2416.833150	11.608800
2412.131767	11.755700
2413.124033	11.516500
2416.433617	11.328200
2413.366200	11.488200
2407.740300	11.821200
2417.654617	11.227700
2420.022400	11.081700
2415.969867	11.312000
2414.347800	11.398800
2413.660050	11.417400
2410.686767	11.537000
2405.456300	11.548500
2405.850317	11.515100
2400.507933	11.860600
2400.198467	11.893100
2411.529083	11.026600
2405.599617	11.349200
2399.831700	11.699100
2413.608217	10.881800
2406.066700	11.199900
2405.687150	11.151000
2403.489667	11.275700
2401.319033	11.390500
2401.825750	11.355600
2399.196867	11.507600
2403.630133	11.170000
2404.301733	11.082700
2402.142250	11.199300
2393.776967	11.698400
2400.007283	11.331700
2392.306450	11.789100
2388.514283	12.007900
2391.723117	11.828600
2395.204650	11.488800
2394.334117	11.316500
2382.792600	11.986800
2383.994767	11.918300
2384.194783	11.909200
2390.410983	11.531200
2385.523800	11.789700
2382.788783	11.749600
2381.030983	11.834200
2386.339183	11.482900
2384.812267	11.560400
2385.413017	11.522600
2383.057950	11.661600
2398.328483	10.732600
2386.610367	11.397200
2383.325683	11.612200
2385.242633	11.494900
2383.880450	11.274900
2381.920333	11.280400
2377.952033	11.482900
2374.321100	11.708700
2378.399783	11.455600
2381.401017	11.256500
2388.516783	10.740700
2377.699967	11.366000
2374.376033	11.571700
2373.206033	11.629600
2371.513900	11.644500
2370.387900	11.603400
2374.170117	11.377400
2378.283317	11.119100
2377.671917	11.146400
2379.629683	11.010400
2367.954817	11.668700
2369.112417	11.368400
2371.088933	11.231200
2375.647683	10.943200
2379.019200	10.747200
2361.788433	11.627200
2363.557467	11.466800
2355.784783	11.885500
2359.634433	11.656000
2360.885100	11.571900
2361.700433	11.521300
2373.994500	10.737300
2371.282317	10.870100
2371.179633	10.860100
2365.561217	11.164400
2356.997017	11.501300
2365.329167	10.974800
2360.304400	11.251800
2368.774533	10.751200
2361.594033	11.141500
2359.819700	11.158500
2355.060717	11.411300
2351.471200	11.580600
2355.488633	11.299600
2354.159133	11.230300
2357.756667	10.999700
2355.344617	11.130800
2344.423367	11.770400
2351.826150	11.354400
2352.292450	11.322900
2344.097367	11.834000
2354.851000	11.183400
2355.793067	11.109500
2345.813550	11.698800
2338.803883	11.735200
2341.236633	11.575900
2341.957600	11.538000
2331.871800	12.158700
2353.313467	10.700900
2338.725600	11.551800
2342.224700	11.331000
2346.241683	11.083600
2340.450433	11.329000
2334.376367	11.630300
2337.799617	11.442800
2337.424417	11.437400
2334.102267	11.637200
2343.737067	11.059100
2332.966883	11.677000
2345.432850	10.919100
2340.641900	11.212800
2340.197850	11.226000
2345.326183	10.861000
2343.754117	10.602200
2331.821717	11.267000
2331.684533	11.276800
2328.673417	11.430500
2339.305200	10.788000
2325.176183	11.609200
2335.180933	11.000200
2332.765450	11.148600
2328.460767	11.286200
2330.598350	11.111400
2333.859317	10.910900
2325.490550	11.386500
2329.453967	11.144600
2331.810200	10.992000
2333.770083	10.863400
2326.828217	11.255300
2323.140550	11.102700
2326.221850	10.898100
2324.804417	10.930400
2322.213517	11.066600
2325.898967	10.778900
2317.197350	11.191800
2318.925783	11.097400
2309.725150	11.637600
2314.345217	11.328200
2330.278533	10.275100
2313.254350	11.283000
2312.230750	11.324100
2317.914833	10.977100
2322.107717	10.711700
2308.026950	11.548500
2312.095183	11.295400
2316.009117	11.047100
2310.136167	11.383400
2314.130850	11.163600
2318.235183	10.504000
2313.216317	10.781300
2308.631550	11.051100
2307.709083	11.101300
2291.700150	11.912100
2299.245800	11.468100
2297.965283	11.555500
2306.949133	11.012800
2309.280433	10.793200
2306.940683	10.853800
2303.247683	11.055400
2305.609850	10.906800
2296.542000	11.433900
2297.637667	11.361800
2307.982500	10.762500
2307.907733	10.754200
2309.261500	10.659600
2296.553600	11.411100
2300.176417	11.168000
2296.234900	11.092500
2297.515533	10.990300
2291.159483	11.370100
2292.288667	11.314700
2298.864217	10.923500
2300.638167	10.793900
2298.450617	10.754000
2302.779850	10.461600
2303.215083	10.406200
2289.625067	11.203100
2297.129883	10.778500
2306.536767	10.189100
2296.486683	10.761700
2298.609850	10.618800
2298.369400	10.310700
2299.852650	10.213800
2290.848000	10.715700
2289.583517	10.775300
2292.721767	10.527200
2289.868717	10.635200
2284.194950	10.919100
2287.199317	10.744700
2283.850517	10.922600
2286.850367	10.729100
2280.511550	11.035200
2286.625333	10.523200
2283.432317	10.677800
2287.920567	10.397000
2286.429583	10.466500
2280.614400	10.780200
2282.188983	10.655500
2279.925867	10.643900
2275.401800	10.908600
2278.986400	10.693200
2277.536483	10.790200
2272.073367	11.084300
2271.425967	11.120600
2265.772333	11.449600
2267.408917	11.345000
2273.253500	10.998300
2276.035133	10.824700
2273.995467	10.576400
2270.283850	10.792500
2266.079067	11.024000
2262.482200	11.237100
2262.465550	11.131500
2260.764300	11.191800
2270.121133	10.647100
2264.781900	10.948500
2270.801833	10.617700
2270.009283	10.668400
2270.848717	10.587800
2271.117200	10.523100
2270.071950	10.569900
2264.862400	10.877100
2266.072233	10.788400
2268.168483	10.663600
2268.443017	10.643900
2272.115333	10.420300
2262.981717	10.932200
2265.839317	10.328600
2263.884167	10.376900
2262.747383	10.416100
2265.198883	10.255600
2271.750000	9.840900
2257.262283	10.687600
2259.024883	10.568200
2253.218567	10.911800
2253.268650	10.581900
2252.138417	10.624700
2254.342283	10.499500
2254.799750	10.452600
2252.214183	10.470400
2247.344417	10.718000
2255.261100	10.249800
2248.472783	10.631500
2254.540817	10.283600
2248.596350	10.629600
2251.196900	10.434600
2244.003183	10.803700
2246.166883	10.652200
2245.490333	10.695700
2242.189350	10.888500
2238.784700	11.088000
2242.185300	10.866600
2248.761367	10.472900
2245.662900	10.628400
2245.332633	10.621000
2241.610800	10.849500
2252.135833	10.044400
2243.210750	10.547700
2245.071650	10.431900
2235.011367	10.950500
2232.035033	10.995100
2233.132850	10.920000
2233.082767	10.905800
2225.221300	11.367300
2241.300783	10.283500
2235.195167	10.620500
2235.946433	10.567900
2232.863617	10.734800
2234.752967	10.621700
2240.792050	10.233300
2236.777283	10.484500
2245.676650	9.914100
2234.534550	10.533000
2238.200300	10.308900
2242.945250	9.682800
2220.842683	10.902400
2221.001433	10.874500
2227.195767	10.497500
2227.367483	10.478500
2229.534733	10.332700
2226.153983	10.413100
2224.631750	10.399500
2234.589133	9.798100
2224.938117	10.341500
2226.640567	10.222400
2224.284033	10.355500
2219.760283	10.626100
2218.698883	10.708600
2223.123250	10.433700
2233.308117	9.804200
2222.785633	10.424500
2213.840633	10.805800
2214.006517	10.783400
2219.815500	10.416600
2219.816367	10.403600
2214.336350	10.568700
2215.556933	10.477000
2218.382517	10.298300
2219.524167	10.219700
2208.844450	10.742700
2208.914083	10.672600
2212.737783	10.426000
2206.563883	10.786600
2213.682433	10.338100
2213.346233	10.332700
2210.196417	10.504700
2205.983767	10.733600
2202.903550	10.572900
2205.012600	10.460100
2209.402117	10.159400
2208.113350	10.176300
2204.283800	10.367100
2202.707033	10.420000
2206.098433	10.216900
2204.400233	10.307200
2207.086433	10.139800
2212.907250	9.760200
2207.222767	10.083800
2200.973600	10.269900
2204.607533	10.031500
2204.844933	10.016200
2201.784750	10.183500
2191.317783	10.838200
2191.361900	10.834500
2209.432667	9.750800
2201.262250	10.237800
2197.062800	10.207200
2191.851833	10.466200
2194.801683	10.287700
2188.211300	10.704600
2191.795433	10.478500
2188.441450	10.666200
2184.819967	10.884800
2191.549317	10.481300
2186.154067	10.711700
2187.870217	10.564100
2191.451233	10.336300
2190.723500	10.348500
2193.380217	10.172900
2197.867900	9.879300
2194.897383	10.017700
2197.971017	9.792500
2188.742317	10.342100
2185.406217	10.514900
2185.236150	10.468800
2182.980900	10.254000
2176.324800	10.656000
2185.762017	10.073300
2187.086333	9.989200
2182.649917	10.108400
2179.550617	10.239200
2176.429067	10.403900
2180.450000	10.161000
2182.570467	10.010600
2180.415650	10.140900
2188.001283	9.673600
2181.623850	10.032300
2179.516033	10.132300
2180.922183	10.047400
2175.723233	10.356100
2170.747867	10.635800
2168.463567	10.544900
2174.525417	9.983300
2172.778450	10.081200
2173.413267	10.026200
2172.919133	10.054000
2167.513300	10.366800
2166.911833	10.405900
2174.173483	9.965200
2170.761983	10.171900
2170.123983	10.198900
2171.949883	10.034200
2168.803467	9.900800
2168.161017	9.896300
2166.441783	9.956500
2171.201567	9.671600
2168.202417	9.673400
2162.494550	9.997800
2160.114333	10.136500
2159.508417	10.160600
2159.954183	9.969700
2157.220000	10.116600
2161.069483	9.849100
2156.856100	10.072500
2156.139967	10.037900
2153.035300	10.229700
2163.253100	9.639300
2157.060800	9.965700
2151.201733	10.231600
2151.769617	10.134200
2152.265500	10.067100
2154.313933	9.899500
2157.643067	9.698000
2157.291083	9.716800
2148.971417	10.181000
2154.557333	9.695800
2155.885967	9.603200
2146.290917	10.154300
2150.975867	9.877100
2148.514617	9.886100
2133.170100	10.785300
2147.332950	9.902700
2134.762667	10.620500
2130.586400	10.887600
2140.654600	10.319700
2140.104667	10.303700
2142.679300	10.107600
2147.427267	9.744200
2142.578550	10.009200
2137.128383	10.333300
2138.986317	10.228700
2137.112300	10.279200
2139.994900	10.058400
2139.719667	10.048400
2138.654167	10.108700
2142.606550	9.780300
2128.189917	10.532300
2136.376683	10.025800
2140.323983	9.737500
2142.845817	9.590600
2146.266833	9.334300
2145.252117	9.381800
2137.223000	9.696600
2131.389383	10.016200
2142.411650	9.264300
2127.962933	10.114000
2128.201483	10.098400
2128.946967	10.048400
2126.019250	10.141500
2128.781000	9.970800
2129.700450	9.912000
2127.498917	10.041200
2130.210117	9.742700
2123.618283	10.088500
2108.569567	10.921700
2127.633283	9.771700
2123.146617	10.019900
2132.936517	9.418400
2123.238450	9.976500
2116.495800	10.236000
2117.563983	10.163800
2120.985333	9.969100
2118.479383	10.088500
2112.515367	10.285400
2119.087017	9.876500
2107.162183	10.533400
2114.085267	10.136300
2113.057067	10.201400
2120.531883	9.778900
2116.869900	9.825600
2109.953117	10.217600
2110.685850	10.097400
2104.284617	10.470800
2110.459750	10.114800
2103.883483	10.489000
2115.867317	9.636200
2107.096900	10.110600
2084.282317	11.419100
2103.211183	10.309000
2105.192317	10.180700
2105.033233	10.204000
2103.569633	10.155700
2110.296517	9.696200
2108.666267	9.765200
2110.257900	9.663600
2108.318350	9.723900
2108.240683	9.658300
2103.376117	9.920900
2101.448050	9.988500
2095.410667	10.352000
2104.070550	9.842100
2110.009833	9.469000
2109.512733	9.350500
2108.154017	9.395000
2098.686983	9.888700
2093.818467	10.166000
2088.226433	10.497100
2093.980867	10.150700
2085.091550	10.559400
2087.312467	10.414100
2106.547317	9.217100
2095.605350	9.853500
2098.381217	9.538400
2099.921200	9.405600
2098.282283	9.425800
2094.669483	9.601300
2095.640600	9.485400
2094.872950	9.528000
2085.757167	10.016900
2082.195233	10.231600
2080.444900	10.268700
2077.395983	10.376200
2093.512383	9.382300
2083.732500	9.977100
2087.161633	9.788800
2089.429650	9.635100
2090.805067	9.458900
2088.625867	9.420500
2084.922817	9.616100
2079.650517	9.874700
2080.268167	9.842600
2076.608000	10.004700
2077.949950	9.939000
2083.823767	9.569000
2081.771717	9.696200
2075.305133	9.962200
2069.179067	10.316600
2079.887133	9.614800
2076.081767	9.857600
2074.570483	9.962200
2080.558700	9.637200
2074.863417	9.843500
2085.483600	9.165900
2067.104050	10.270800
2074.996717	9.828800
2074.467217	9.740000
2069.217517	10.024100
2067.899300	10.039800
2072.056050	9.777300
2071.998017	9.775700
2069.014833	9.923800
2066.546350	10.097400
2063.728033	10.255600
2063.950300	10.229400
2065.346567	10.062200
2066.629767	9.977600
2073.751983	9.534400
2069.637633	9.746800
2068.131367	9.645500
2069.129117	9.560000
2062.653850	9.948300
2062.740933	9.951400
2064.067833	9.775000
2061.698683	9.910600
2049.689233	10.510000
2056.149167	10.097600
2059.176333	9.898900
2060.671267	9.808400
2052.704350	10.167300
2057.495483	9.835300
2065.368950	9.264300
2063.262950	9.380100
2060.138400	9.554700
2067.513900	9.069600
2054.623167	9.765200
2058.109733	9.533200
2055.475100	9.649800
2059.103883	9.425800
2057.842450	9.480000
2060.951567	9.247700
2057.126317	9.457700
2055.777100	9.485400
2059.465017	9.230900
2055.529050	9.448200
2060.292167	9.117200
2054.783533	9.274600
2049.775533	9.513400
2056.951617	9.024800
2053.225267	9.229400
2056.108750	9.054900
2058.921700	8.867400
2037.655917	9.977300
2046.755383	9.435400
2046.705750	9.402000
2047.562683	9.340300
2049.059083	9.166600
2047.330700	9.231000
2043.442317	9.400100
2033.094917	10.037900
2050.359550	9.014400
2046.475367	9.224300
2043.157600	9.269700
2035.138083	9.728800
2038.017100	9.457500
2040.084500	9.335100
2031.809083	9.813700
2029.406283	9.967000
2038.050350	9.324600
2027.773167	9.893000
2030.208283	9.716500
2029.279183	9.753400
2027.554700	9.753900
2024.506950	9.865500
2028.505550	9.630300
2027.701783	9.642100
2026.715250	9.687300
2036.915933	9.077200
2028.302200	9.575400
2028.917367	9.417800
2023.678417	9.689000
2028.733983	9.342400
2028.455983	9.331600
2023.950300	9.569400
2032.693200	9.024900
2025.879367	9.289400
2020.142650	9.589800
2016.475433	9.817600
2022.943767	9.422300
2028.634417	8.985200
2015.969567	9.713300
2021.579650	9.253800
2016.562400	9.571800
2016.042617	9.595100
2024.866000	9.055800
2020.762500	9.282600
2017.145867	9.438200
2014.596600	9.568500
2021.446600	9.158100
2013.488067	9.571100
2011.574867	9.553100
2019.464300	9.066300
2019.639783	8.970400
2014.685967	9.247400
2018.589150	8.971800
2013.909767	9.242300
2014.437933	9.174400
2007.921333	9.555400
2012.266833	9.226300
2013.350983	9.147700
2007.985367	9.450500
2011.236750	9.264900
2003.539483	9.599200
2009.935017	9.153500
2009.139983	9.169900
2002.383167	9.548600
2001.505133	9.576400
2010.791733	9.027400
2008.015000	9.049200
2000.505783	9.382900
1999.720300	9.366600
2006.413950	8.909700
1997.146783	9.442000
2003.867150	9.032100
2003.354833	9.023200
2002.368033	8.947000
1996.149733	9.297700
1992.594700	9.509400
2001.628717	8.961500
1995.546750	9.171300
1998.262100	8.988900
1989.276817	9.469400
1993.501700	9.201900
1985.385300	9.672000
1990.645400	9.324600
1995.143333	8.890600
1997.870333	8.704900
1986.615350	9.366600
1990.139533	9.143800
1985.511850	9.301800
1984.985400	9.293100
1983.072550	9.363900
1986.855917	9.114200
1981.830817	9.387500
1977.873467	9.646700
1986.654633	9.028000
1979.860583	9.373600
1981.971650	9.210600
1981.343783	9.219700
1975.856617	9.527900
1974.562000	9.625500
1980.553150	9.249300
1976.711833	9.353800
1976.377150	9.379800
1979.047083	9.216700
1982.112167	9.015500
1977.113500	9.169200
1981.874950	8.849100
1979.785733	8.926000
1974.532167	9.224600
1972.636450	9.333900
1974.444700	9.223200
1977.866817	8.940500
1976.303567	9.008600
1969.009517	9.348200
1965.899050	9.507600
1983.938100	8.410200
1979.117267	8.692400
1981.840233	8.461600
1977.475150	8.649300
1984.779833	8.134000
1979.043333	8.480200
1969.909317	8.995700
1974.874617	8.659100
1967.605633	9.026800
1967.553567	8.924600
1974.057550	8.516100
1971.125467	8.657000
1964.392300	9.020400
1959.164333	9.176500
1959.650817	9.135800
1965.788183	8.710900
1956.956983	9.227800
1966.987583	8.619400
1967.182083	8.593300
1960.669433	8.837500
1960.160633	8.809300
1963.625167	8.531900
1955.730100	9.006000
1951.530350	9.269700
1953.921350	9.119700
1946.917267	9.404300
1948.896217	9.266000
1943.062850	9.609900
1956.243033	8.839300
1950.586600	9.135000
1950.125567	9.135800
1952.136850	8.984400
1961.875017	8.365400
1954.132150	8.805300
1946.939717	9.230900
1939.783100	9.649800
1946.335100	9.141600
1942.202183	9.373000
1951.451500	8.757300
1946.505050	9.039600
1955.243517	8.516900
1952.238417	8.666000
1936.377867	9.467300
1938.587050	9.309900
1941.363533	9.131800
1939.104533	9.257500
1948.341967	8.639000
1935.913617	9.364100
1944.475467	8.768600
1948.466000	8.519700
1948.481517	8.474900
1937.705300	9.118500
1934.450583	9.200800
1936.251117	9.026300
1930.272167	9.317600
1933.729133	9.106300
1932.507550	9.166500
1932.218367	9.200000
1932.382467	9.144500
1930.222933	9.170200
1928.058983	9.267700
1933.796400	8.902200
1934.964667	8.789600
1939.359067	8.526800
1932.639233	8.915500
1931.423517	8.759300
1937.407217	8.407100
1930.556383	8.780200
1937.291283	8.366800
1933.850383	8.522500
1932.184183	8.590300
1928.525350	8.737200
1926.539583	8.839300
1925.429700	8.878800
1922.412967	9.059300
1922.370983	8.935000
1921.265567	8.929700
1924.799600	8.674200
1922.638183	8.833900
1924.631817	8.672900
1936.604633	7.932100
1931.531017	8.100500
1917.205567	8.825300
1919.768550	8.668200
1921.755367	8.506400
1911.830583	9.102100
1920.787583	8.545900
1921.029133	8.475700
1914.406067	8.729300
1916.666883	8.584000
1919.133883	8.427700
1914.490550	8.679900
1913.450117	8.660000
1916.116317	8.487800
1908.062567	8.906000
1908.941133	8.824300
1912.514533	8.599600
1913.298617	8.516900
1905.074733	8.852500
1908.546683	8.594200
1906.859533	8.662000
1909.629633	8.495200
1908.018700	8.465700
1896.593567	9.072800
1900.398217	8.802200
1905.483717	8.484200
1911.192367	8.132900
1910.771550	8.141100
1906.266783	8.340400
1903.934967	8.397500
1900.063650	8.622600
1898.628850	8.701500
1893.453483	8.980300
1902.968883	8.288500
1900.661567	8.402900
1897.248717	8.581100
1894.908983	8.695900
1895.755150	8.630400
1886.696217	9.167900
1894.318567	8.704400
1897.860183	8.480800
1893.566467	8.557700
1899.889617	8.170700
1894.897117	8.434700
1893.703883	8.501500
1894.280183	8.366200
1887.112750	8.713800
1886.629783	8.650600
1888.295183	8.568700
1885.004550	8.752500
1903.459583	7.646200
1896.885400	7.955700
1884.651450	8.619300
1873.911683	9.240700
1881.422800	8.794500
1875.722617	9.109100
1876.081533	9.007300
1876.246983	8.962300
1882.167200	8.507100
1880.096917	8.623700
1879.959367	8.607800
1876.415917	8.819600
1871.571317	9.061100
1884.404850	8.267100
1877.448833	8.585500
1875.208017	8.717900
1875.629217	8.690900
1882.226183	8.267200
1877.874350	8.349000
1875.644817	8.474900
1882.384117	8.050100
1881.317450	8.090100
1878.522317	8.134700
1871.021500	8.514000
1871.801500	8.380500
1872.379067	8.393300
1882.578200	7.793100
1879.876033	7.928200
1874.616117	8.141000
1864.306633	8.665900
1864.594267	8.625500
1867.154800	8.467200
1863.101550	8.724000
1860.614733	8.861800
1861.348400	8.793600
1858.086467	8.867900
1859.842350	8.777400
1861.350300	8.689500
1860.184300	8.737200
1863.936450	8.370000
1859.987600	8.565600
1859.817450	8.523900
1860.565517	8.472500
1856.989467	8.669000
1856.648767	8.687900
1853.319667	8.750300
1852.583983	8.753500
1857.523100	8.412000
1858.506300	8.337300
1856.313217	8.458100
1859.167450	8.273700
1856.244600	8.344800
1846.749150	8.822700
1850.267733	8.569300
1849.782767	8.587400
1849.737083	8.599000
1850.316117	8.550200
1859.353833	7.941400
1852.164217	8.242700
1850.803700	8.312700
1848.317867	8.453900
1849.819150	8.320200
1851.897933	8.047300
1848.839567	8.191700
1847.243450	8.222100
1843.189933	8.459500
1843.384400	8.418600
1832.637000	9.070200
1840.714933	8.449300
1834.046417	8.788400
1844.982667	8.118200
1839.828117	8.405300
1835.138517	8.676200
1838.111367	8.475500
1854.463567	7.258100
1846.048633	7.773700
1841.404917	7.987100
1835.010733	8.405800
1829.744267	8.602400
1838.448717	8.019500
1835.133867	8.178800
1836.300300	8.062500
1835.514983	8.090500
1838.699233	7.901500
1837.581550	7.888200
1828.414950	8.349000
1824.444600	8.567100
1823.008317	8.618900
1824.212933	8.563000
1824.305533	8.570200
1834.153400	7.986600
1824.765400	8.444100
1829.634133	8.129500
1821.708000	8.501100
1825.266700	8.283300
1819.626400	8.600100
1822.951400	8.392500
1816.974817	8.679500
1817.240367	8.657600
1826.477350	8.097300
1823.403150	8.300700
1812.987783	8.801500
1816.151800	8.571600
1821.631217	8.210900
1818.341367	8.398400
1816.427317	8.507900
1820.103633	8.289400
1821.305967	8.179400
1816.260833	8.367700
1815.121433	8.426500
1812.399450	8.516100
1812.753650	8.490600
1819.012067	8.108300
1811.755983	8.487100
1818.019983	7.965700
1815.315833	8.107000
1814.195933	8.184700
1817.567833	7.956100
1814.148800	8.032800
1811.571567	8.127800
1802.585117	8.620700
1812.505217	8.039600
1806.567467	8.385200
1810.502483	8.134000
1805.397817	8.291900
1814.765300	7.693800
1809.159317	7.898000
1801.505633	8.377000
1802.583267	8.322800
1802.698900	8.313600
1801.291767	8.212700
1808.073450	7.797600
1802.822967	8.090300
1799.887950	8.259600
1801.414700	8.065800
1800.999417	8.008400
1798.108267	8.149700
1804.250617	7.730900
1796.266233	8.203600
1797.693050	8.114100
1799.641400	7.942200
1800.337383	7.777000
1798.818317	7.836500
1787.687883	8.431000
1792.610867	8.137700
1801.850917	7.573400
1789.911417	8.292800
1791.420167	8.111300
1799.099900	7.645500
1780.823850	8.704200
1783.805150	8.536200
1792.602883	7.878100
1793.690667	7.769300
1783.137667	8.352500
1788.336767	8.025200
1779.868633	8.544100
1788.954000	8.013300
1789.400667	7.845500
1784.829450	8.080200
1771.833117	8.810600
1783.577733	8.119600
1779.751317	8.256200
1789.359967	7.619300
1780.416883	8.098900
1788.218417	7.591100
1779.784867	8.089400
1785.533067	7.705400
1780.091033	8.008900
1780.130267	7.955300
1785.629283	7.593700
1776.992033	8.035300
1780.438533	7.837000
1784.393017	7.583300
1777.497733	7.962400
1781.525167	7.545800
1767.621050	8.368800
1769.752400	8.198700
1773.965183	7.936000
1770.050533	7.996900
1775.380300	7.649700
1768.456967	8.003600
1761.005400	8.435400
1770.437450	7.761600
1765.752383	8.038000
1760.742317	8.349800
1761.382767	8.318300
1762.041683	8.184400
1763.327833	8.032900
1761.168250	8.168700
1762.658933	8.074000
1764.544383	7.941700
1761.062633	8.101000
1767.919033	7.679800
1769.756333	7.481500
1764.613033	7.763800
1766.915800	7.628700
1767.126550	7.610400
1764.701017	7.581800
1757.505683	7.981900
1766.122200	7.429800
1762.422783	7.646200
1754.582933	7.967200
1746.014183	8.438200
1746.338150	8.372100
1753.062017	7.970000
1754.905250	7.863000
1759.051017	7.603700
1758.642067	7.589600
1752.396317	7.933100
1739.476400	8.642700
1752.683350	7.860900
1749.796217	8.003600
1742.420350	8.444100
1749.588683	7.932400
1743.936283	8.148400
1747.322333	7.918900
1747.600600	7.863900
1747.004950	7.867800
1745.432067	7.963700
1749.672850	7.711800
1743.633283	7.944100
1743.951400	7.900800
1743.279383	7.921000
1747.008533	7.685500
1746.222817	7.600700
1739.743783	7.928800
1732.831283	8.265100
1743.142267	7.641800
1735.538033	8.114800
1736.379817	8.067200
1738.424417	7.838000
1739.412583	7.728700
1744.816567	7.349600
1734.545367	7.911200
1735.180100	7.860900
1737.828217	7.697300
1730.164750	8.108700
1734.302017	7.834400
1732.277133	7.915000
1728.612717	8.149700
1731.264850	7.953900
1727.931783	8.020900
1726.017583	8.096500
1726.677083	8.008600
1724.856933	8.141500
1728.606167	7.888400
1727.845600	7.916700
1732.726433	7.495600
1726.121550	7.853400
1730.175917	7.556000
1728.379283	7.647100
1724.781983	7.851400
1720.172667	8.126600
1727.042233	7.612600
1730.761717	7.388000
1723.654600	7.780500
1725.259133	7.681600
1725.023567	7.568300
1725.693100	7.467900
1718.738933	7.787800
1727.157300	7.285800
1714.067317	7.997600
1719.418100	7.687500
1713.118383	7.971400
1709.648583	8.085400
1711.845167	7.958000
1712.628167	7.868900
1712.472933	7.869100
1714.322017	7.766600
1722.007700	7.292700
1722.081500	7.181100
1711.150383	7.837600
1718.371850	7.394400
1713.196050	7.659900
1716.561417	7.399400
1709.335317	7.792400
1702.659433	8.144500
1706.072833	7.930000
1709.713600	7.698600
1707.515983	7.831300
1702.464450	8.057400
1709.642583	7.517200
1711.917033	7.340500
1711.697483	7.327600
1711.828883	7.210900
1700.303000	7.804200
1700.392800	7.766400
1702.332733	7.604200
1692.190717	8.194100
1702.491567	7.559900
1702.338033	7.523500
1698.510033	7.658500
1699.016533	7.626100
1703.383900	7.305300
1696.190867	7.735400
1703.685450	7.273800
1699.421017	7.522700
1695.328250	7.626000
1684.760383	8.220100
1692.943583	7.671400
1697.735967	7.378100
1690.622317	7.780100
1696.489350	7.414800
1689.400683	7.635700
1691.999200	7.457400
1695.423767	7.258100
1696.032867	7.195100
1686.551683	7.669300
1686.224267	7.587800
1688.260550	7.415400
1684.789417	7.601000
1682.924033	7.718800
1682.794567	7.727900
1687.887483	7.391200
1678.861900	7.799700
1684.685833	7.432900
1686.280700	7.304400
1684.207017	7.396700
1676.285583	7.869100
1680.051500	7.615500
1682.821300	7.396500
1676.578500	7.734900
1666.473233	8.305300
1669.010350	8.153700
1680.639783	7.451200
1683.592750	7.273800
1678.218100	7.422900
1670.641233	7.842700
1682.304867	7.113800
1674.630817	7.583900
1671.137133	7.652500
1671.532483	7.602400
1668.287650	7.730100
1664.822183	7.939900
1675.899567	7.258100
1669.010617	7.672400
1665.112767	7.860800
1658.372117	8.141000
1666.560683	7.638100
1664.975717	7.685900
1666.031650	7.608600
1664.931067	7.670300
1665.354733	7.627600
1652.923500	8.211600
1656.089717	8.032700
1662.413367	7.663700
1664.088850	7.548600
1656.851417	7.846100
1662.598150	7.482900
1651.538500	8.105100
1655.528800	7.843800
1666.957517	7.135700
1664.967767	7.247600
1663.891183	7.225600
1665.372533	7.029400
1664.746600	7.018500
1659.662450	7.283100
1655.025300	7.550400
1653.963150	7.599000
1654.209600	7.578900
1657.487250	7.337400
1656.872600	7.364400
1664.123717	6.916400
1660.966533	7.089400
1658.124467	7.212200
1651.575517	7.575800
1649.548500	7.633800
1652.634517	7.442300
1644.916183	7.885600
1650.065367	7.556600
1648.101483	7.536100
1641.817367	7.860500
1641.772850	7.797000
1649.088367	7.350200
1646.911900	7.444800
1646.551617	7.442000
1643.467583	7.487200
1649.038083	7.126900
1651.569217	6.943400
1636.674700	7.815900
1631.137300	8.104800
1638.961800	7.584600
1639.247517	7.520300
1631.645300	7.944600
1633.944233	7.799500
1636.036867	7.686200
1640.618733	7.369000
1637.009367	7.520300
1640.124333	7.310500
1644.200100	7.031700
1632.445150	7.722900
1638.112717	7.370000
1638.264100	7.350900
1633.878600	7.451700
1636.790817	7.229600
1626.457483	7.837600
1636.492367	7.225100
1639.983267	6.861500
1634.792683	7.126600
1629.721917	7.338500
1631.465317	7.255700
1626.217750	7.528200
1638.444633	6.762700
1636.361183	6.810700
1640.931683	6.484300
1629.206550	7.132200
1635.202067	6.758000
1614.102233	7.992400
1624.622950	7.351200
1629.080567	7.028000
1622.839900	7.284900
1619.818650	7.427400
1628.530150	6.870600
1624.119350	7.106700
1626.535417	6.941300
1627.570800	6.857700
1620.346467	7.130600
1620.775950	7.092900
1622.225967	6.974000
1620.430400	7.079700
1625.722733	6.624700
1613.715000	7.276800
1613.734517	7.230500
1615.745367	7.114700
1612.667367	7.288400
1610.292100	7.451400
1613.723867	7.113800
1613.837083	7.061500
1619.618217	6.607700
1611.112983	7.147900
1604.849667	7.497800
1608.367733	7.300000
1603.306050	7.522200
1598.858767	7.714100
1608.879450	7.132200
1608.193983	7.156000
1598.598767	7.654100
1603.335000	7.270500
1603.949317	7.211300
1608.361517	6.907100
1600.496083	7.384600
1614.523667	6.507200
1607.319033	6.866200
1598.359333	7.287700
1587.768300	7.920600
1597.697483	7.269100
1602.492233	6.952900
1599.779300	7.107000
1602.379933	6.955600
1598.753800	7.141200
1597.442017	7.216100
1601.694517	6.880400
1601.735467	6.872900
1587.908150	7.632000
1594.445983	7.219000
1581.390767	7.976600
1596.228950	7.086000
1593.053050	7.231800
1594.204583	7.170700
1591.914500	7.248600
1594.855533	6.972400
1594.417583	6.975700
1591.410750	7.122900
1587.177133	7.374100
1592.187717	7.060700
1593.974400	6.923100
1584.744933	7.316500
1593.958567	6.764300
1587.316783	7.138900
1591.886883	6.850900
1588.170267	6.922400
1583.321283	7.173400
1585.748333	6.970600
1581.262583	7.221700
1580.844017	7.243400
1577.034683	7.467100
1574.053850	7.524600
1579.082533	7.186600
1580.556150	7.018500
1580.563417	7.009100
1575.796317	7.311800
1570.914533	7.608400
1584.037917	6.707300
1573.667283	7.333600
1578.375150	7.019400
1578.768617	6.986000
1579.310050	6.798900
1571.716483	7.196200
1569.739567	7.226600
1569.346550	7.263000
1564.097067	7.572800
1572.462417	7.014800
1572.909067	6.904400
1563.481067	7.382600
1576.590467	6.546500
1570.447717	6.866000
1568.933900	6.941100
1566.794833	7.060000
1566.009750	7.099800
1560.850033	7.362100
1559.693233	7.417000
1566.054517	7.018700
1568.382300	6.860100
1560.786600	7.282800
1566.349717	6.932900
1561.820383	7.138000
1563.136667	7.034600
1555.499950	7.473900
1559.630917	7.205000
1566.277600	6.693000
1561.941617	6.868700
1564.027150	6.623400
1554.393700	7.194000
1550.389783	7.452100
1553.724517	7.218200
1550.309667	7.347200
1550.805333	7.198000
1552.979367	7.039700
1550.656467	7.110500
1553.061050	6.963600
1555.914233	6.764500
1558.067017	6.607700
1543.915933	7.318600
1547.203750	7.131300
1552.588317	6.815600
1555.342350	6.614100
1552.819283	6.601000
1552.404567	6.596300
1547.787033	6.854800
1552.066650	6.601200
1550.908367	6.515600
1549.532100	6.563100
1538.293017	7.184600
1540.210417	7.046600
1531.673550	7.567500
1546.088600	6.693000
1535.002233	7.254100
1540.390300	6.902100
1537.988683	6.967000
1535.903833	7.112500
1545.821983	6.518500
1546.375567	6.468200
1541.469567	6.640700
1543.045133	6.497200
1535.705500	6.892500
1534.930000	6.894900
1541.734767	6.483200
1539.681233	6.602800
1535.390283	6.825700
1539.008383	6.581800
1538.243967	6.617300
1539.917017	6.473600
1530.147150	7.050900
1538.940933	6.497500
1528.600233	7.089400
1527.262050	7.173000
1534.083683	6.766300
1529.752633	6.835600
1527.127533	6.951400
1530.840550	6.665400
1521.160400	7.248300
1524.150950	7.061400
1526.426150	6.945600
1521.819567	7.024700
1526.864283	6.734800
1526.176217	6.707000
1519.634167	7.084700
1515.820083	7.321000
1519.973850	7.038900
1525.464317	6.719300
1528.519567	6.516200
1520.925333	6.865600
1526.163333	6.462100
1517.558317	6.950900
1522.430950	6.637800
1510.983667	7.247600
1521.870067	6.505400
1515.723517	6.860300
1509.006117	7.200800
1516.143083	6.776200
1511.004667	7.055900
1511.136283	7.046500
1521.006550	6.318300
1518.063067	6.439100
1515.897617	6.519800
1515.972317	6.514700
1514.151183	6.601900
1512.779883	6.672100
1511.263417	6.580700
1501.914650	7.117500
1510.874817	6.576200
1510.200233	6.621700
1514.987633	6.233200
1512.520283	6.287200
1511.290933	6.338800
1498.948450	7.050900
1516.240567	5.999300
1505.151000	6.655800
1508.659783	6.416800
1514.204917	6.037100
1504.638467	6.576200
1496.324633	7.006300
1504.723583	6.497500
1502.640450	6.625800
1500.800267	6.687800
1499.350567	6.675500
1501.206017	6.550700
1507.455667	6.170600
1493.869467	6.926900
1502.807883	6.266500
1505.960233	6.063100
1502.426983	6.222400
1497.021033	6.518500
1503.778317	6.108500
1498.347117	6.395300
1488.769467	6.795200
1485.748433	6.971800
1481.522117	7.212200
1492.475250	6.560100
1498.105367	6.152300
1490.284717	6.607700
1494.305817	6.293000
1493.499867	6.350000
1505.251367	5.632100
1493.245900	6.333600
1493.118633	6.226600
1495.929650	5.970900
1487.152433	6.408400
1491.781633	6.111400
1485.412700	6.470700
1485.817017	6.415700
1484.954467	6.404600
1481.784800	6.474600
1486.222950	6.198600
1480.722017	6.483800
1479.115617	6.568700
1480.892333	6.451000
1472.725717	6.928400
1485.363633	6.195400
1488.407583	5.995300
1479.399717	6.532700
1483.576133	6.275200
1462.412283	7.291000
1471.082100	6.757800
1468.866767	6.883400
1471.552133	6.726400
1483.293150	5.850300
1482.075983	5.881900
1475.525183	6.203800
1481.598167	5.803700
1479.822900	5.820900
1477.837750	5.948100
1470.038367	6.403100
1466.298100	6.637200
1471.831583	6.242200
1464.257667	6.608300
1465.800233	6.527500
1460.438000	6.840000
1464.084367	6.571700
1461.426350	6.620100
1461.986917	6.576200
1467.655633	6.179500
1463.162433	6.436600
1458.467217	6.718400
1463.214050	6.447300
1467.973900	6.120300
1463.271633	6.376900
1469.530367	5.936300
1466.701517	6.097400
1459.786883	6.473800
1457.321100	6.610200
1452.926750	6.754500
1461.629600	6.209100
1457.028450	6.453000
1454.175533	6.619300
1463.397150	5.985600
1456.685100	6.278400
1458.542817	6.119900
1458.752167	6.071000
1455.510217	6.261500
1454.584850	6.272700
1457.111200	6.084000
1454.139583	6.209800
1452.492317	6.276800
1449.100033	6.391900
1445.506267	6.618800
1448.134133	6.457000
1445.957167	6.577100
1451.771917	6.153800
1445.803133	6.479200
1446.910233	6.392200
1450.380367	6.164000
1448.244450	6.146100
1454.481883	5.752300
1452.043483	5.798800
1437.180217	6.668000
1441.072100	6.409500
1446.350267	6.088100
1439.853117	6.305000
1444.418633	5.994400
1434.409950	6.583200
1430.414067	6.821000
1436.995267	6.327500
1433.685250	6.460800
1433.413633	6.387400
1433.633500	6.392100
1433.795983	6.366400
1436.755200	6.179400
1434.134550	6.302700
1428.091217	6.628700
1433.787133	6.264700
1424.505633	6.761500
1424.671567	6.742400
1435.544533	6.071200
1432.617517	6.234800
1423.998050	6.675600
1425.712883	6.556600
1432.079367	6.122000
1438.483517	5.725700
1437.062883	5.769100
1431.648517	6.073700
1424.013000	6.382200
1419.589083	6.640000
1426.307550	6.206400
1423.499600	6.376200
1420.040733	6.457300
1415.129717	6.704300
1425.440117	6.029000
1421.720833	6.214300
1414.828150	6.615600
1424.891883	6.020800
1415.764917	6.506000
1424.574217	5.961500
1409.520483	6.803500
1417.355017	6.339500
1423.508050	5.948400
1412.200533	6.593500
1414.208500	6.442500
1414.622800	6.351600
1416.802783	6.196600
1415.606817	6.253700
1417.538167	6.113600
1412.979917	6.238700
1407.678550	6.534300
1415.397517	5.987900
1402.720033	6.723100
1401.558617	6.779900
1406.898733	6.458200
1410.300933	6.127000
1412.683500	5.941200
1403.421017	6.443300
1401.586467	6.527000
1404.881467	6.335600
1394.945767	6.923900
1406.710550	6.036000
1403.297317	6.258800
1411.159333	5.770600
1402.349483	6.267400
1400.856783	6.247900
1401.970683	6.103600
1400.435650	6.118200
1398.622183	6.235900
1413.910317	5.317400
1407.510033	5.659000
1405.658567	5.670800
1402.919667	5.730500
1398.436483	5.970400
1393.268933	6.214000
1393.619050	6.173700
1393.740817	6.149900
1392.761333	6.195400
1395.140600	5.943300
1389.124067	6.276500
1396.071100	5.798100
1393.000233	5.955700
1395.871683	5.790100
1388.055700	6.253800
1394.251133	5.744500
1387.675083	6.153100
1402.611600	5.262300
1391.127983	5.921500
1391.775517	5.762000
1389.076433	5.895700
1384.000617	6.155600
1381.110517	6.311600
1380.406900	6.323100
1388.420600	5.817000
1387.309800	5.841900
1384.240217	5.885600
1376.341300	6.328500
1381.057833	6.002500
1384.889967	5.756000
1382.010683	5.921800
1377.731017	6.157700
1372.516133	6.334000
1373.934450	6.237000
1370.230467	6.464600
1369.326117	6.512300
1373.882300	6.111000
1381.068167	5.645600
1370.815667	6.222200
1376.383833	5.862100
1363.609133	6.611200
1365.592983	6.514600
1374.358483	5.880400
1371.201867	6.024800
1376.505217	5.674100
1372.469417	5.861000
1374.592267	5.720900
1371.813983	5.878000
1368.421000	5.976000
1371.378717	5.738300
1368.443867	5.908400
1374.254267	5.538500
1375.409350	5.400600
1360.671750	6.177600
1356.143717	6.404300
1362.431033	6.010600
1367.250150	5.737800
1360.786667	6.108500
1360.775250	6.086700
1365.349233	5.759200
1362.900517	5.890400
1371.820567	5.329100
1363.304383	5.828200
1355.539600	6.135600
1360.080067	5.822600
1359.947933	5.777500
1359.978283	5.747500
1359.722133	5.741200
1351.738683	6.233500
1359.333067	5.666000
1357.979450	5.686500
1363.804000	5.233500
1356.735583	5.666200
1350.140833	6.041200
1356.934817	5.614400
1359.321533	5.394100
1347.086333	6.050500
1344.895867	6.144200
1348.104950	5.900700
1352.754817	5.600600
1349.171350	5.812500
1353.097983	5.545300
1344.116550	5.970300
1345.336800	5.885400
1338.433183	6.224800
1338.998950	6.186000
1349.931250	5.503800
1340.161483	6.068200
1344.760667	5.794700
1344.361950	5.799300
1342.670433	5.748700
1349.990617	5.298200
1347.778667	5.284700
1341.425150	5.636700
1339.151133	5.728600
1332.466500	6.106800
1327.973633	6.372700
1334.469083	6.007000
1344.046917	5.304800
1334.933517	5.805800
1338.943600	5.537700
1337.786817	5.620400
1327.157133	6.213400
1330.754900	5.990100
1332.309750	5.841900
1326.032133	6.118600
1332.678050	5.725200
1336.383883	5.489500
1338.064850	5.350800
1331.041700	5.654400
1325.955167	5.937800
1325.120033	5.949700
1323.034350	6.058500
1324.530967	5.955500
1322.917683	6.070900
1322.698367	5.921900
1329.094350	5.548200
1324.178250	5.831400
1317.321083	6.248800
1332.487883	5.229100
1325.565833	5.596600
1306.113333	6.703600
1323.817000	5.641200
1324.481017	5.570900
1317.091500	6.008400
1312.724100	6.213900
1319.242467	5.795600
1310.940833	6.251800
1321.530850	5.599200
1320.321700	5.656800
1309.613650	6.276600
1319.524817	5.687000
1315.803617	5.912000
1319.159900	5.692800
1316.137033	5.870800
1315.234667	5.925800
1313.085583	6.035200
1315.917083	5.779900
1313.867633	5.614900
1308.769500	5.874300
1313.898950	5.541900
1314.886533	5.452900
1321.593783	4.916200
1314.792950	5.271300
1313.187950	5.343600
1308.238000	5.648700
1308.640667	5.607200
1304.822667	5.837000
1299.098417	6.170300
1312.029233	5.383900
1309.913350	5.424300
1311.557400	5.280000
1302.790450	5.629500
1303.524533	5.549800
1296.899433	5.878600
1297.068750	5.873400
1304.952867	5.386400
1302.696633	5.515600
1309.151050	5.038200
1306.655633	5.105800
1305.498017	5.148800
1300.626050	5.403300
1298.172617	5.543000
1297.859867	5.540600
1295.706217	5.643500
1298.275267	5.469200
1298.166700	5.424900
1299.797933	5.220400
1298.100583	5.284300
1298.646000	5.221200
1293.099833	5.507200
1286.542483	5.764600
1274.036250	6.504900
1280.481467	6.111200
1284.305350	5.882400
1291.019333	5.474800
1283.855267	5.896100
1275.555083	6.205600
1281.175933	5.854000
1283.589900	5.671200
1281.814267	5.773700
1283.439683	5.598700
1284.851517	5.474000
1280.858550	5.704200
1285.950500	5.365800
1282.814250	5.525700
1280.180350	5.649000
1285.024683	5.333200
1281.151900	5.571300
1284.803833	5.351500
1281.615167	5.505200
1283.360383	5.269300
1276.983217	5.561300
1275.099167	5.674100
1274.092833	5.676700
1274.128117	5.641700
1274.167517	5.609000
1279.695467	5.150300
1270.563950	5.573100
1276.377867	5.202800
1277.993550	5.071500
1275.342567	5.189600
1255.033250	6.393900
1272.072867	5.371400
1268.335600	5.565000
1268.377000	5.551200
1262.192217	5.605400
1257.307183	5.851000
1259.055917	5.734700
1256.561400	5.883900
1263.422000	5.350200
1261.632033	5.404000
1254.462483	5.819200
1256.454817	5.680400
1257.388133	5.635600
1252.470533	5.911900
1258.358400	5.405100
1252.948167	5.674700
1260.649200	5.211000
1261.656450	5.124000
1259.665800	5.213400
1256.721233	5.407600
1256.806150	5.374200
1252.379850	5.617200
1253.926817	5.499200
1259.369800	5.171700
1251.393967	5.432000
1257.095383	4.948900
1247.466033	5.468500
1244.828567	5.582300
1243.753783	5.614900
1250.582133	5.200600
1245.750300	5.478300
1240.628317	5.762300
1241.115300	5.741100
1248.723950	5.221800
1244.184483	5.474800
1244.905767	5.410100
1244.304133	5.428000
1242.087733	5.573800
1245.297517	5.378900
1247.371183	5.226100
1243.817983	5.437600
1236.299700	5.604600
1230.642017	5.872700
1230.372667	5.880800
1233.344700	5.689500
1227.093633	6.030700
1234.458200	5.585400
1236.870700	5.425500
1235.183883	5.515600
1232.915533	5.457700
1231.830550	5.392200
1229.678100	5.507700
1230.728567	5.437700
1229.715667	5.511500
1229.570750	5.509500
1231.163033	5.405500
1229.744883	5.505700
1231.730583	5.312500
1230.392550	5.284500
1236.106750	4.921200
1236.116617	4.882100
1231.645633	5.097100
1228.839867	5.120600
1229.136100	5.085900
1230.486433	4.956100
1223.061183	5.386000
1221.658400	5.438100
1219.856700	5.549400
1224.329067	5.058200
1216.398483	5.485300
1228.598433	4.750300
1212.528133	5.711800
1215.399650	5.416200
1219.579650	5.122200
1210.280850	5.659800
1214.934850	5.373600
1212.433183	5.513200
1227.793717	4.580900
1227.371450	4.578900
1216.809067	5.184500
1219.910467	4.964300
1213.310283	5.346100
1213.193400	5.319000
1207.724800	5.580300
1214.579417	5.158100
1215.910950	5.064900
1211.229833	5.330200
1213.372867	5.192600
1211.762400	5.280300
1214.479583	5.084500
1219.581000	4.754700
1208.627883	5.250700
1211.688517	5.021600
1213.181450	4.907700
1213.861267	4.838900
1203.408567	5.228300
1202.479733	5.269000
1205.322300	5.049600
1207.911733	4.864300
1204.267817	4.926500
1198.255217	5.190800
1192.449700	5.530500
1205.008467	4.775000
1189.885550	5.668800
1193.990400	5.427000
1183.890333	6.041200
1190.753700	5.628300
1194.059550	5.415300
1197.605650	5.204700
1195.612967	5.145800
1193.321350	5.100600
1192.191583	5.152900
1198.151017	4.779200
1195.334017	4.933100
1192.415933	5.080000
1190.529667	5.129300
1184.166433	5.358700
1187.964900	5.103000
1189.715483	4.999900
1190.164450	4.957800
1192.923167	4.764500
1192.838483	4.764700
1179.473367	5.354600
1184.471383	5.039800
1182.079600	5.168100
1190.606433	4.646800
1187.391567	4.697300
1182.356250	4.935300
1171.917600	5.562600
1177.481350	5.219100
1173.358583	5.470300
1176.547767	5.273600
1185.085067	4.755200
1179.437633	5.068900
1177.946717	5.144300
1173.490550	5.410800
1171.944067	5.234900
1175.119167	4.933400
1178.838217	4.719500
1170.936267	5.162000
1177.498783	4.744000
1174.131283	4.927000
1173.400600	4.887300
1169.905833	4.957300
1169.943500	4.939800
1169.322033	4.954000
1159.658050	5.531400
1159.704717	5.532500
1170.711267	4.794500
1158.137917	5.389100
1156.803800	5.453100
1163.990950	5.020200
1165.687250	4.908300
1159.813233	5.118100
1162.149733	4.966000
1158.256667	5.197400
1162.774600	4.925400
1158.689617	5.160800
1164.204650	4.844100
1158.745033	5.160100
1162.705200	4.909800
1161.046967	5.008400
1163.941167	4.831700
1167.139133	4.525900
1162.298333	4.734700
1157.966167	4.971200
1156.564700	5.038800
1154.725233	5.136700
1158.788667	4.880300
1159.900867	4.704200
1151.621733	5.077300
1162.072267	4.442600
1155.599183	4.804000
1154.640117	4.789700
1154.950300	4.663500
1158.102317	4.439300
1147.995550	5.025900
1148.524383	4.985200
1148.681133	4.977400
1144.188517	5.231900
1142.232933	5.263000
1144.155083	5.116600
1147.186167	4.915700
1140.376117	5.306900
1138.428783	5.432800
1134.991517	5.633600
1132.282733	5.793400
1140.060333	5.327200
1149.058983	4.765600
1150.983950	4.611300
1145.903217	4.776800
1137.140667	5.266100
1138.437117	5.175800
1136.280600	5.253000
1137.878817	5.167100
1147.893333	4.538800
1138.338650	4.848000
1137.664817	4.871300
1135.997267	4.888700
1124.347983	5.562400
1128.113183	5.316400
1133.693233	4.941400
1130.749483	5.097100
1137.583400	4.655100
1131.035550	5.028900
1134.024533	4.845400
1130.950483	4.946800
1128.963633	4.931800
1127.664033	4.978000
1126.690700	4.980000
1125.515400	5.020500
1134.038050	4.495500
1132.509067	4.576400
1133.472783	4.470400
1121.905850	5.155200
1127.839217	4.802900
1129.183500	4.726800
1126.976150	4.696200
1120.971350	5.033400
1119.039483	5.065000
1123.681367	4.781600
1127.108567	4.404800
1128.136650	4.312500
1123.714300	4.562100
1120.367267	4.758800
1119.407817	4.781000
1128.141983	4.216000
1107.602133	5.390800
1118.354450	4.741200
1121.927550	4.494000
1119.007133	4.669000
1111.563683	5.063800
1113.028200	4.866900
1111.171567	4.948700
1117.015667	4.525100
1117.198950	4.502700
1105.585317	5.177300
1112.458917	4.737200
1108.839967	4.787300
1109.389300	4.753200
1101.888083	5.178700
1109.101817	4.736300
1110.414683	4.520800
1111.130067	4.439300
1100.319650	5.026800
1110.899133	4.403200
1114.869433	4.125100
1110.667533	4.364800
1106.098000	4.491300
1097.567950	4.943100
1104.877083	4.478200
1104.589417	4.463300
1096.014800	4.897800
1101.227100	4.617900
1097.806467	4.773800
1099.863567	4.517600
1095.515250	4.767000
1101.588767	4.355600
1098.998417	4.502300
1108.462433	3.913000
1101.734167	4.272200
1097.709300	4.383000
1089.575533	4.852900
1101.293033	4.136200
1090.299333	4.801900
1087.031483	4.857100
1078.546400	5.340600
1084.994200	4.929300
1085.142833	4.923400
1082.527483	5.076100
1087.336650	4.797600
1085.193333	4.865200
1093.047133	4.392100
1080.180100	5.123400
1083.813650	4.888800
1088.329767	4.612700
1080.849317	5.052500
1086.612183	4.660000
1081.766767	4.920500
1092.337200	4.255800
1089.371317	4.430000
1093.719417	4.071500
1089.499033	4.206100
1090.194867	4.108400
1084.870017	4.377500
1084.041317	4.407800
1087.057333	4.199200
1076.979967	4.749200
1082.823150	4.290600
1073.611883	4.798600
1076.974767	4.542200
1073.357383	4.764400
1079.458200	4.392600
1071.899050	4.826100
1078.211050	4.309200
1074.360567	4.514900
1076.541167	4.350200
1075.924167	4.382000
1080.484550	3.999900
1075.848867	4.225400
1068.756650	4.589400
1068.405433	4.602700
1067.537350	4.583100
1068.048067	4.577600
1073.701650	4.173300
1067.472650	4.448700
1061.316233	4.782400
1064.891250	4.572000
1064.245667	4.588400
1074.895167	3.940100
1070.404050	4.172400
1060.434450	4.616100
1070.310900	4.036800
1059.330550	4.663800
1057.859633	4.754500
1056.731600	4.681800
1057.034850	4.643100
1048.302567	5.083100
1052.336800	4.851300
1061.805200	4.260600
1059.955500	4.367400
1057.360533	4.459600
1050.936767	4.833500
1044.294100	5.181000
1055.892767	4.500800
1051.200100	4.771200
1055.923783	4.488100
1057.802050	4.304100
1059.564183	4.073200
1057.588217	4.189700
1051.313117	4.516700
1052.553467	4.365200
1044.432283	4.758400
1047.199200	4.571700
1049.638567	4.395800
1047.351883	4.531300
1042.127883	4.845400
1046.470600	4.562100
1039.238383	4.934500
1044.257683	4.619800
1047.048100	4.407600
1044.484167	4.516700
1050.531367	4.133900
1042.039817	4.625900
1052.849750	3.820800
1045.668467	4.229300
1048.221417	4.043600
1043.969017	4.264700
1045.414283	4.036300
1037.835217	4.427600
1036.156867	4.453700
1034.973983	4.509700
1037.736967	4.339400
1043.843917	3.952400
1044.045733	3.789400
1034.889183	4.283500
1038.583333	4.021900
1035.507933	4.227100
1031.983550	4.310400
1032.077350	4.261200
1027.678233	4.501600
1021.529667	4.826900
1027.437433	4.465300
1026.797583	4.457200
1027.362700	4.435500
1032.494033	4.109800
1023.900067	4.601900
1031.931900	3.970500
1044.236650	3.221400
1022.559933	4.504900
1022.778900	4.482600
1023.676900	4.312200
1026.469650	4.123200
1027.900467	3.978200
1023.539217	4.225100
1016.521350	4.638600
1026.507767	4.050200
1020.325667	4.313600
1020.197000	4.280700
1013.393383	4.636300
1019.037850	4.271700
1016.338967	4.383800
1022.193217	4.070900
1022.896233	4.010200
1020.403217	4.151900
1018.995967	4.100600
1010.807383	4.513600
1004.329550	4.893000
1012.262083	4.376800
1015.594833	4.162000
1016.991433	4.042900
1016.141767	4.088600
1018.994367	3.885500
1011.665850	4.289400
1003.408267	4.665800
1009.708150	4.279800
1009.293850	4.239600
1008.042700	4.306200
1005.823883	4.434400
1014.576817	3.896000
999.258233	4.665700
1009.455617	4.040600
1002.115717	4.444700
1003.848733	4.322200
1005.952250	4.082400
1001.815033	4.283500
1006.997683	3.869800
1008.134533	3.817300
999.142483	4.347100
999.905033	4.283500
1001.939367	4.091000
994.718717	4.447400
1001.399233	4.042900
998.227533	4.228600
998.083383	4.210300
995.222483	4.255300
993.396833	4.345600
992.160467	4.354100
995.356500	4.159500
991.721667	4.364900
989.804333	4.482400
995.580850	3.995100
997.994900	3.810900
986.072617	4.456100
986.248433	4.454800
992.814300	4.034100
991.418350	4.101300
992.847400	3.861300
992.119850	3.860700
995.797183	3.544600
992.574683	3.711700
990.799467	3.775400
994.214983	3.566200
992.720883	3.610300
988.774950	3.791400
992.150667	3.590300
988.807883	3.766900
989.114783	3.693400
983.099450	4.016700
984.541133	3.890800
973.245650	4.425000
970.225300	4.616100
986.745033	3.614800
976.290683	4.186600
973.474150	4.277700
984.156650	3.623700
979.019333	3.860500
970.797600	4.353000
983.609867	3.580700
974.619933	4.095700
972.792717	4.100000
978.184867	3.729500
977.335700	3.729900
976.213700	3.800700
973.778733	3.916300
976.640017	3.758300
972.845350	3.822600
972.673233	3.825100
978.271300	3.497400
964.504533	4.294600
965.458783	4.161100
966.133367	4.058600
965.013100	4.103700
964.789733	4.106500
962.452200	4.229100
960.466550	4.346400
958.659750	4.419000
964.301467	3.953000
964.995517	3.907400
964.960033	3.902800
954.052567	4.504400
958.168633	4.159600
963.555767	3.836600
952.715167	4.440500
953.512767	4.423100
957.389550	4.183200
961.561733	3.937600
958.423417	3.983600
958.054333	3.962200
961.188500	3.695700
962.147583	3.646600
970.044717	3.143900
959.933617	3.753500
953.917850	3.997800
953.160117	3.995000
954.711583	3.855100
948.640867	4.191500
953.196467	3.899300
952.311883	3.956200
942.098650	4.556400
949.529500	4.117800
954.168133	3.848200
953.167567	3.905900
956.344183	3.696100
961.092867	3.171200
951.119633	3.747400
944.536300	4.103400
945.226033	4.051000
941.804667	4.106600
941.493450	4.104300
939.286800	4.201800
936.466050	4.341000
936.784000	4.257900
936.942717	4.254800
946.548083	3.675400
936.248450	4.275600
936.769767	4.090100
941.361417	3.784100
940.908367	3.785900
938.260850	3.925200
938.332383	3.842800
938.812983	3.728800
936.109950	3.839100
934.107133	3.933400
930.762500	4.122300
927.356500	4.337400
930.660617	4.115600
923.270400	4.473600
932.727783	3.910900
942.094100	3.270900
933.916433	3.746500
931.608550	3.869100
934.229067	3.712400
934.937250	3.517800
942.807217	3.026600
912.703383	4.803400
928.527417	3.875000
928.659667	3.722900
920.167833	4.194400
933.610117	3.338300
928.777483	3.620200
920.915133	4.085200
920.313867	4.129400
917.486717	4.121600
924.900333	3.707800
925.425200	3.641100
919.062917	3.999200
919.563800	3.930300
918.275150	3.957000
924.884483	3.534100
916.539633	4.002700
915.051000	4.074000
921.253717	3.713300
917.746417	3.897800
919.886583	3.664900
919.536517	3.660800
921.520967	3.475400
919.697483	3.547600
914.760567	3.834800
918.213417	3.617300
916.069800	3.604500
913.667650	3.702000
922.248017	3.125000
915.636850	3.511800
914.109233	3.576100
910.037267	3.822200
909.665950	3.709800
909.036550	3.702000
908.469733	3.657400
905.707817	3.804200
909.047367	3.602300
909.300417	3.595700
909.432583	3.503500
911.052650	3.313800
908.417967	3.466700
904.339867	3.694100
897.292400	4.048800
897.795850	3.915300
897.727350	3.906900
895.549433	3.994900
902.303767	3.605300
900.965567	3.672500
900.657283	3.667900
908.455233	3.123100
898.747817	3.687500
897.944017	3.726800
912.124817	2.849000
899.189683	3.504700
895.161950	3.691500
888.681067	4.042100
891.720917	3.836900
896.347833	3.526600
888.487333	4.009000
888.018883	3.908500
895.192683	3.421000
893.803767	3.404000
897.545467	3.177500
888.930817	3.682400
897.262500	3.161100
895.720300	3.041100
897.302483	2.994400
882.617500	3.873300
882.677850	3.844200
883.048683	3.781000
884.430483	3.673600
879.201233	3.970900
889.360600	3.333600
884.978800	3.568200
886.626733	3.478900
893.977317	3.012500
887.644900	3.245100
884.579367	3.395300
878.558233	3.698500
882.076883	3.466300
882.776717	3.416600
873.262317	4.000400
877.492200	3.589200
877.425150	3.577500
884.954933	3.088900
882.164150	3.259800
878.652133	3.350500
884.739917	2.917700
867.038067	3.906500
873.489800	3.493800
870.911200	3.618000
870.357200	3.659400
873.009567	3.418700
874.217083	3.254800
875.350967	3.141500
876.343033	3.077800
868.191183	3.586600
862.132133	3.898000
866.424917	3.632600
867.477967	3.475100
866.144867	3.534800
870.322983	3.231400
865.148150	3.520500
857.455567	3.956600
863.989767	3.564800
861.466533	3.594700
861.211717	3.595400
860.236583	3.615700
860.137567	3.620000
857.209983	3.646000
865.012817	3.157100
866.816417	3.025400
862.508950	3.246300
855.279917	3.611000
864.097333	3.084700
855.686833	3.526300
861.131550	3.160200
854.145583	3.549400
858.429250	3.290100
845.846517	4.030400
846.774767	3.962900
856.186667	3.323000
850.102483	3.590500
851.953767	3.468200
857.224817	3.131300
856.215150	3.137100
846.537067	3.580400
841.798200	3.831000
836.633567	4.073300
851.581983	3.180700
844.489200	3.600600
851.634967	3.179600
842.245233	3.586600
846.005867	3.308600
843.033417	3.433400
850.202183	2.967700
842.025817	3.457400
846.315233	3.188500
829.928033	4.042900
839.402367	3.506000
843.993433	3.236200
832.794900	3.890100
836.748400	3.585900
841.753283	3.197800
846.539033	2.854000
840.506017	3.178700
842.589400	3.043200
838.234600	3.281700
841.144000	3.025800
826.551000	3.788100
831.600767	3.477200
823.563467	3.962600
823.526650	3.973200
827.026533	3.726100
834.403000	3.298800
831.298283	3.424900
824.784800	3.822900
818.507283	4.144900
824.513050	3.777000
833.395717	3.241100
829.285183	3.442000
830.080383	3.210400
830.887917	3.156500
825.858467	3.448100
823.893533	3.521800
828.752533	3.104800
812.347067	4.029500
813.322383	3.911800
818.746600	3.562500
818.201933	3.584500
819.327650	3.519000
820.939283	3.386500
825.386717	2.984000
816.366183	3.505300
818.045800	3.387300
820.926167	3.200900
822.269517	3.091100
812.771817	3.645800
816.273250	3.281400
811.073150	3.568800
820.452517	2.975300
820.803117	2.961500
811.990567	3.347900
807.796383	3.565600
810.860167	3.340100
813.993167	3.146600
806.669433	3.563800
806.305000	3.585300
812.251167	3.106700
808.052467	3.308300
802.586700	3.549900
806.731167	3.287900
799.991000	3.691500
799.402783	3.714700
808.316433	3.067300
808.163517	3.035300
805.113733	3.219400
794.490650	3.829800
799.537033	3.490300
804.697150	3.080100
800.964067	3.276500
790.896250	3.842100
800.276817	3.296300
793.057600	3.706500
794.249633	3.614500
796.969050	3.296100
798.092117	3.254000
796.637383	3.310000
797.278033	3.267100
791.116100	3.470100
783.053167	3.936200
783.432733	3.861100
788.086967	3.581300
782.560350	3.897300
789.103500	3.512400
791.387167	3.227300
785.275850	3.540900
792.517367	3.064700
792.060583	3.066700
795.586667	2.836100
797.009300	2.711700
783.002433	3.427900
785.484783	3.254800
792.431167	2.810300
784.256717	3.320000
798.624450	2.396700
790.298467	2.831300
797.735467	2.351000
793.995100	2.514000
785.580933	3.008800
775.345983	3.579100
779.775633	3.312100
781.869467	3.039800
774.144183	3.472000
776.881433	3.288100
780.646450	3.072600
775.475467	3.277400
771.055883	3.526600
766.571517	3.687500
771.314250	3.398400
773.171317	3.289700
780.472067	2.833700
765.777950	3.585300
762.274933	3.753700
763.291200	3.689400
769.664150	3.303300
778.096217	2.789300
776.471367	2.885000
767.902933	3.267100
768.019883	3.198400
774.946333	2.713300
762.938250	3.426600
773.180267	2.820800
771.595967	2.886800
766.135633	3.097000
760.790867	3.354500
763.234167	3.192800
766.855083	2.954500
762.383600	3.225300
762.744200	3.189300
757.753483	3.439000
761.502567	3.091100
758.708833	3.253900
759.604200	3.175200
760.002350	3.101400
756.821850	3.182100
753.410283	3.376000
748.733067	3.633800
753.418317	3.354200
758.809533	3.000100
754.772633	3.241300
748.163000	3.514200
746.705817	3.579800
750.773017	3.278900
753.501483	3.127900
752.920633	3.155200
744.468133	3.650200
749.077733	3.279700
756.340283	2.836000
745.112133	3.445000
756.507750	2.796900
752.759350	2.895000
754.915217	2.679500
743.978867	3.263300
747.090550	3.033900
745.345617	3.144500
752.141983	2.709700
744.693867	3.099500
745.387750	2.917500
747.141633	2.808700
743.978717	2.989400
744.741683	2.947600
742.148600	2.931300
739.473633	3.070300
738.695067	3.055100
738.035967	3.078200
731.064833	3.488200
733.772417	3.304100
734.946117	3.096200
737.808600	2.879400
747.585717	2.237600
737.552633	2.816200
728.801050	3.315900
734.270867	2.981900
730.212033	3.170800
733.046317	2.966000
722.816067	3.498500
731.010300	3.011700
739.443317	2.486600
730.142367	3.026900
734.983983	2.569000
728.569050	2.964600
726.392100	3.090300
727.825950	2.999700
730.599083	2.740900
724.418167	3.043100
727.347850	2.838000
717.283800	3.370200
726.913633	2.806300
724.495083	2.937700
718.525433	3.245200
720.230067	3.026300
724.093300	2.775600
718.827817	3.034400
718.106133	3.056200
715.795083	3.196600
712.253750	3.400200
708.179200	3.510000
716.748550	2.988600
716.241100	3.020100
720.469083	2.771800
714.142583	3.046300
713.756067	3.006500
709.889900	3.193200
714.608200	2.909100
710.144083	3.198400
711.673700	3.067800
710.892367	3.041900
709.496433	3.046000
702.132683	3.472600
705.183300	3.257100
711.190350	2.887500
699.251633	3.589000
705.114267	3.213500
704.632967	3.179000
705.989183	3.087100
717.917883	2.347900
701.477550	3.276600
698.307400	3.312000
702.128700	3.060000
713.842517	2.295200
700.046683	3.121000
709.252433	2.538700
701.979217	2.935400
692.153267	3.394700
699.429667	2.933000
691.378400	3.363300
698.272000	2.942100
700.634683	2.788000
701.656683	2.729200
701.382583	2.579500
696.249250	2.866800
701.263517	2.529200
697.944133	2.739700
704.409300	2.211600
696.817383	2.582800
689.928817	2.933900
696.927133	2.505400
701.986800	2.223600
696.930583	2.479900
693.485850	2.648400
684.003483	3.134200
687.753167	2.895200
694.098917	2.504600
689.990100	2.704500
697.620333	2.140300
689.476900	2.586300
688.505217	2.620400
689.229483	2.577400
693.013250	2.336400
683.663267	2.871500
682.391117	2.827400
681.422833	2.859100
678.462383	3.007900
685.473500	2.575200
674.326733	3.235900
679.305417	2.934200
684.073850	2.602800
682.680600	2.651700
683.633633	2.569000
674.184383	3.107500
683.379617	2.550200
684.600750	2.457000
677.231967	2.825600
677.602400	2.705400
673.039167	2.959400
674.555517	2.863400
672.611033	2.910700
673.365617	2.774300
674.400017	2.685200
672.509033	2.778100
673.053667	2.708000
672.766850	2.593200
675.113667	2.399600
659.851717	3.265700
660.474150	3.214200
682.977633	1.821400
669.875800	2.574300
668.073483	2.651200
670.389167	2.517500
663.164050	2.780100
667.984900	2.490000
658.794867	2.983400
656.568833	3.110800
657.773850	2.917800
655.779583	3.015400
662.709350	2.514000
658.923500	2.745000
670.606333	2.041000
666.059117	2.301500
662.191383	2.420200
662.192433	2.371000
666.531717	2.069000
664.774633	2.143300
656.127667	2.636600
656.099550	2.631300
649.691967	3.016100
649.778467	2.984900
652.894283	2.782600
653.837900	2.718900
651.197017	2.864900
653.270300	2.615700
643.436467	3.156500
644.369400	3.024000
645.356433	2.969200
646.076233	2.892100
647.788467	2.796800
647.801867	2.746100
651.693867	2.485100
647.758983	2.641000
654.707350	2.222100
648.229817	2.583200
643.451500	2.856900
636.302733	3.127600
640.999683	2.813200
640.769733	2.805100
646.170467	2.463500
644.801717	2.399600
634.492267	2.962100
647.088967	2.138900
641.662400	2.465400
639.523383	2.579500
641.223033	2.455600
634.219250	2.853300
635.506333	2.653600
640.407317	2.343200
634.338450	2.648100
630.259450	2.891400
628.530900	2.982000
626.688667	3.092600
626.309167	2.973500
633.887800	2.514300
633.875017	2.496800
632.896600	2.565300
634.596050	2.394600
625.851183	2.894800
634.446183	2.323600
626.210033	2.794600
617.000550	3.376800
626.946433	2.742100
620.484067	3.037100
614.756833	3.326800
634.583100	2.086500
626.012033	2.582800
617.683183	3.074800
627.086400	2.503500
623.806100	2.635200
616.788900	2.955900
619.238667	2.782100
616.402100	2.890200
624.524850	2.401200
617.713167	2.811500
609.450833	3.289900
616.309400	2.817300
619.668317	2.603300
612.610550	3.001800
619.152300	2.603700
618.588000	2.502600
609.162150	3.020100
620.478300	2.298900
622.976250	2.097000
618.982783	2.262700
611.434783	2.718400
614.463933	2.454700
608.994767	2.671700
602.401550	3.009600
611.019100	2.489100
609.230233	2.588500
604.184167	2.865200
609.257133	2.535100
604.222433	2.784400
605.699050	2.670000
610.502283	2.338300
602.283767	2.828900
610.319200	2.196600
610.739767	2.129300
601.786333	2.581900
594.804550	2.978100
599.881367	2.699900
595.278583	2.965900
588.325000	3.366300
597.008317	2.845100
601.386517	2.576000
603.568517	2.425700
598.114967	2.531000
582.584833	3.424000
590.225767	2.913500
587.972633	3.052300
596.368617	2.531300
600.540400	2.268300
593.459100	2.554800
591.523083	2.599900
602.193783	1.929100
594.292617	2.364200
585.664833	2.873200
580.179133	3.187300
585.458667	2.837000
586.611317	2.657000
588.302483	2.538400
587.208717	2.539700
586.949083	2.558500
587.353550	2.532600
586.188617	2.571500
587.631933	2.339200
576.170917	3.016400
584.423500	2.507100
590.065500	2.151900
584.662067	2.345000
577.495950	2.722200
577.860483	2.617000
575.902767	2.727800
575.668650	2.745000
582.534467	2.334200
580.606433	2.319400
572.562500	2.748000
582.538950	2.092800
579.613183	2.260900
567.317417	2.969000
570.502850	2.777700
580.108733	2.062000
578.889450	2.108700
577.742950	2.166900
572.302383	2.497600
564.104633	2.917600
557.430517	3.224000
560.846650	3.002100
570.469200	2.399100
565.646617	2.664200
575.693867	2.058800
578.222800	1.862700
566.254633	2.437600
563.151883	2.589100
558.471333	2.813200
548.597733	3.403000
571.813000	2.022900
568.698700	2.195100
554.814867	2.951900
558.395617	2.729000
562.932300	2.431200
570.534233	1.969900
562.159250	2.401200
557.880533	2.632000
563.899000	2.188800
560.216567	2.395700
558.530217	2.456300
558.585067	2.475200
553.817083	2.646400
557.733667	2.354300
556.660000	2.380200
557.844483	2.275900
546.612933	2.957200
559.831533	2.158000
556.054400	2.369700
555.576100	2.227500
549.946483	2.530300
551.063333	2.422900
551.645167	2.364500
554.069983	2.220400
552.032450	2.298000
548.848550	2.382000
548.028083	2.405200
549.000217	2.314100
545.945083	2.500900
549.616950	2.167800
536.359283	2.917600
541.626050	2.562000
542.246233	2.547400
539.750183	2.682700
545.029667	2.342000
549.162833	2.066800
544.104383	2.359900
547.487050	2.071800
543.577883	2.289700
539.965867	2.500100
544.330000	2.220900
543.102233	2.154700
543.994450	2.082600
550.839733	1.624900
542.083850	2.150100
527.479900	2.978100
544.059433	1.880200
529.032267	2.758700
529.804600	2.663400
528.709617	2.734100
534.191117	2.390000
530.836733	2.592100
531.432400	2.411700
533.189017	2.292500
531.780900	2.368800
533.539083	2.246800
531.554933	2.274100
526.444850	2.567400
526.238533	2.533600
527.717250	2.428200
522.972950	2.697000
522.565417	2.715200
522.393900	2.656800
528.159117	2.302100
534.764583	1.874800
530.871850	2.067600
537.150617	1.672100
526.440583	2.285200
521.613567	2.477900
514.368617	2.831300
523.085983	2.290600
534.672683	1.552300
516.011833	2.623000
519.039533	2.448400
519.847433	2.262700
514.417067	2.516600
514.871067	2.477900
519.827717	2.181500
517.993467	2.282300
515.101050	2.367600
512.096667	2.561000
506.283567	2.853800
508.896883	2.697400
500.230233	3.079600
516.135333	2.112100
520.108783	1.818100
517.431167	1.937300
510.794950	2.280600
516.095467	1.951700
517.637200	1.833900
511.963450	2.102700
509.635783	2.144200
500.992333	2.587900
508.794683	2.139700
508.116550	2.160600
509.179100	2.057700
512.493433	1.774300
504.387617	2.222900
497.785233	2.528800
493.568617	2.766800
494.654533	2.703700
497.465533	2.515600
498.900850	2.313000
501.671600	2.118000
497.791533	2.327800
503.987167	1.940900
492.199833	2.647000
493.794700	2.542500
498.549050	2.258700
503.020017	1.999700
497.922400	2.065500
496.957467	2.115500
498.491733	1.985800
498.054717	1.975400
491.726783	2.306800
493.148417	2.177000
503.372067	1.530500
491.107400	2.256300
489.570550	2.258400
489.460533	2.178400
487.836000	2.237700
488.053433	2.193400
488.741683	2.140900
493.635833	1.818700
489.173850	2.055000
485.170250	2.148600
482.359117	2.303600
480.129167	2.433500
491.660067	1.700600
482.259450	2.139600
478.284417	2.371100
480.693200	2.194500
479.148567	2.290700
478.237550	2.348700
478.976117	2.300300
478.139617	2.364800
485.546067	1.910900
474.757233	2.355700
469.556967	2.645300
476.804750	2.229900
479.101500	2.097000
473.445933	2.330800
473.709650	2.253000
483.766000	1.651200
482.983117	1.682000
481.281817	1.769900
470.339733	2.367100
475.854483	1.989700
480.943967	1.562000
474.414167	1.943600
475.317717	1.869500
465.220450	2.420700
464.722733	2.327800
466.382767	2.218400
470.917600	1.955400
468.388333	2.051800
466.209433	2.062900
460.102350	2.424600
463.744983	2.164300
468.058567	1.882400
463.817050	2.118000
465.316183	2.032300
461.979350	2.238300
463.566450	2.116200
459.515483	2.186200
454.589000	2.476200
463.999117	1.897700
449.192733	2.751100
454.926617	2.354000
458.933367	2.123600
449.803583	2.642500
451.747767	2.525900
444.939517	2.930900
453.734700	2.412900
448.144100	2.731200
448.327817	2.660000
452.197300	2.415000
462.197433	1.808500
461.769267	1.783100
447.639200	2.564700
452.553633	2.264800
458.027517	1.773500
443.761167	2.607500
450.822583	2.152900
448.079417	2.301500
445.320183	2.337700
448.821550	2.108400
447.285467	2.156000
446.935583	2.165800
451.752567	1.847600
440.283800	2.527800
441.603050	2.319000
440.187917	2.354000
445.585233	1.971100
442.560617	2.137700
433.657450	2.639400
439.189183	2.317900
448.769867	1.574600
438.495050	2.192700
430.645450	2.635500
437.033600	2.259900
440.943017	1.914200
431.719400	2.424300
437.141033	2.077000
435.865767	2.098700
431.860333	2.321200
432.296483	2.285800
434.542100	2.105400
437.716950	1.785300
435.679733	1.914700
430.337117	2.212400
426.256833	2.425900
420.103300	2.695500
431.562900	1.996500
427.149983	2.224000
427.756450	2.159100
428.857950	2.086500
433.881117	1.778300
421.988783	2.481100
430.970400	1.945500
421.966333	2.256400
418.563283	2.470000
421.976967	2.256200
428.163100	1.877400
416.873950	2.388600
412.224067	2.662100
423.638533	1.960600
418.439750	2.245200
418.982883	2.095600
415.924217	2.236400
415.868667	2.170400
415.032700	2.220900
413.641850	2.295600
419.795867	1.928000
417.354967	2.018300
413.884067	2.098400
413.780417	2.103500
411.420283	2.244700
408.906883	2.329300
413.957900	1.934700
409.230767	2.195900
415.497650	1.781400
410.972017	2.030600
409.239583	2.114800
403.899950	2.439900
406.969667	2.188400
413.515617	1.757000
401.361600	2.408700
407.782200	1.997700
408.848733	1.910800
411.202400	1.740900
407.005217	1.845200
408.029350	1.749600
412.676750	1.387200
400.421350	2.110800
398.570317	2.201900
410.427817	1.476800
404.957217	1.745600
398.527600	2.085900
395.677150	2.218800
400.521550	1.880400
405.632683	1.554100
407.590667	1.403300
407.738133	1.344700
394.826783	2.029300
391.741900	2.209800
397.455517	1.851500
392.792433	2.109100
392.138700	2.010600
398.393100	1.628400
399.357817	1.511300
398.907233	1.511500
400.897433	1.382500
396.279200	1.637700
393.762583	1.627000
394.703833	1.571200
386.822033	2.000800
387.005217	1.988300
383.776767	2.079500
399.314867	1.098500
390.184917	1.562000
394.187550	1.316100
387.500650	1.750800
387.787667	1.671200
387.995967	1.559600
389.569450	1.406400
388.410600	1.437000
379.745450	1.916700
376.281467	2.114000
376.209450	2.129700
382.699317	1.724600
376.565983	2.031400
381.151650	1.718700
376.855400	1.961700
377.283100	1.927500
378.721667	1.727000
382.073350	1.499100
377.665883	1.683400
381.448517	1.442300
371.873383	1.992100
371.536417	2.021600
374.752933	1.724200
369.318150	1.987200
373.556883	1.681900
375.721833	1.518700
375.023817	1.541000
369.276417	1.887200
365.427650	2.048700
376.903450	1.296300
371.457150	1.618200
368.691567	1.766600
372.653467	1.501700
366.710333	1.836700
369.529167	1.627400
361.752900	1.975500
364.999583	1.762000
365.626817	1.690700
366.107083	1.692700
362.035817	1.784600
357.581167	2.019200
358.368617	1.925000
360.369783	1.815700
356.778267	2.059700
362.802417	1.691600
361.944017	1.619000
355.054383	1.980100
352.349617	2.079500
358.711417	1.694900
358.271833	1.711900
356.719933	1.773100
358.651617	1.549400
362.564850	1.246800
350.126783	1.911700
346.470733	2.123200
357.062433	1.514800
355.497067	1.576700
360.076383	1.212100
355.157683	1.429600
352.423917	1.559600
349.567017	1.720100
346.251550	1.880400
349.385550	1.584900
344.230133	1.859200
351.665017	1.359200
351.112233	1.359400
346.476617	1.638500
345.285883	1.698400
341.048300	1.833300
338.296200	1.980900
338.457333	1.967200
341.964583	1.766200
334.652317	2.123600
340.240833	1.758400
338.468483	1.826200
338.036017	1.824200
342.527933	1.534000
343.744950	1.467600
339.003800	1.680900
343.172467	1.342400
335.779350	1.729800
337.275817	1.625600
334.777083	1.752400
335.271083	1.726300
335.227567	1.692800
335.293433	1.592200
333.063300	1.691400
334.880233	1.534300
336.669483	1.423000
331.650700	1.707600
330.190383	1.779100
326.953333	1.848700
327.773700	1.792800
322.027433	2.148100
322.562850	2.120400
326.425700	1.846500
326.679817	1.824200
321.971450	2.046600
321.971450	2.034000
324.652567	1.862000
329.603733	1.564000
325.288617	1.728800
317.937167	2.088200
321.948300	1.832100
327.158250	1.478700
317.833083	2.025700
327.638800	1.445400
320.836083	1.790500
329.371250	1.181400
324.134883	1.476700
322.572167	1.570400
318.351533	1.795900
316.048717	1.780400
317.918583	1.645900
311.712350	1.954800
312.406933	1.913800
317.740150	1.567800
316.699350	1.619700
319.109967	1.357100
311.333183	1.790800
312.210867	1.693100
309.468250	1.833900
302.945283	2.221000
297.633767	2.580200
309.294233	1.768300
309.918833	1.715500
303.594717	2.069000
308.116367	1.805600
318.769850	1.062000
317.154533	1.090600
309.620700	1.488600
306.211800	1.651200
302.618333	1.844500
302.352917	1.856300
308.318217	1.453400
307.228583	1.409500
302.026783	1.696900
300.610883	1.797700
299.799917	1.816400
295.983817	1.918100
301.907417	1.551500
297.533583	1.798900
297.837617	1.770200
305.715750	1.305000
303.430350	1.430100
302.771633	1.318900
301.442267	1.366400
293.455850	1.831200
297.481400	1.578000
292.112767	1.846700
295.746800	1.630800
291.228200	1.810500
293.163300	1.641000
288.744317	1.828400
288.503350	1.847700
284.268200	2.107500
286.808600	1.935900
290.944000	1.605300
289.876717	1.593500
292.722683	1.402600
292.318500	1.397400
289.160000	1.578900
289.231717	1.565900
290.347450	1.466100
283.221917	1.853300
284.992500	1.697100
292.509767	1.226300
285.213167	1.624100
286.960850	1.391700
284.222833	1.524400
278.817350	1.775700
276.170633	1.938400
280.870483	1.663900
286.035867	1.314200
278.085300	1.670400
286.080967	1.144400
278.880800	1.527900
275.142683	1.736200
281.227283	1.346200
279.057950	1.473900
286.278967	0.890600
274.159300	1.596600
268.818350	1.917000
275.960500	1.478100
275.864367	1.441400
273.353483	1.540300
270.632533	1.688800
271.676983	1.576900
270.029083	1.656400
267.485583	1.798000
270.377750	1.623000
269.978133	1.479400
269.656783	1.462300
264.876067	1.745600
261.601567	1.922900
266.545683	1.514800
268.814283	1.337200
274.649350	0.919500
268.151083	1.297900
252.941717	2.151500
267.457983	1.286800
253.260233	2.064700
260.120100	1.647900
272.850950	0.848700
255.754833	1.875700
258.660867	1.679600
258.571133	1.695700
264.618817	1.257800
263.768367	1.222100
257.372750	1.571700
263.766267	1.166900
260.600017	1.354100
254.585700	1.695900
260.663617	1.304600
255.206117	1.430000
252.441867	1.576400
256.553083	1.330000
258.490050	1.217400
247.715200	1.686900
256.551800	1.163400
246.628333	1.718200
251.156517	1.442900
246.919167	1.515800
250.999150	1.283400
238.748300	1.959000
243.620883	1.657000
229.236083	2.457100
244.849300	1.553700
239.496667	1.864700
238.627867	1.904900
242.254867	1.589300
247.331717	1.207400
244.996733	1.341700
242.412100	1.478700
241.826117	1.453400
241.906350	1.400100
238.317967	1.583000
237.523550	1.595400
250.016300	0.827700
237.677350	1.566900
234.259650	1.749900
238.378783	1.383100
236.591467	1.466900
240.775183	1.170100
234.297700	1.548900
231.981500	1.683300
230.866500	1.729800
239.672000	1.034400
235.483317	1.286600
230.288300	1.559700
234.044983	1.297300
236.687100	1.000800
225.820017	1.605500
228.201950	1.406400
220.288567	1.877300
222.313533	1.754800
228.428017	1.385900
226.989983	1.421800
228.449450	1.318500
219.080100	1.771800
220.361967	1.766600
219.753733	1.779700
227.680450	1.315500
224.155550	1.462800
228.231033	1.097500
214.654667	1.887200
222.602283	1.383700
217.102100	1.659600
219.585083	1.422100
218.200600	1.465800
217.644117	1.439900
224.703617	1.013300
219.107467	1.338800
211.811383	1.751500
216.431633	1.359400
216.668750	1.324500
228.217650	0.553500
213.610483	1.428700
214.147783	1.380700
215.724800	1.262400
209.602283	1.546600
212.381167	1.316600
213.103267	1.187000
212.379150	1.238700
211.178467	1.306700
213.750850	1.153500
204.505517	1.584500
203.742617	1.573100
204.274567	1.541000
202.012633	1.660600
209.469533	1.172500
206.112217	1.270700
207.151133	1.167400
197.307700	1.714500
206.463650	1.163400
201.937067	1.420400
205.615450	1.204500
205.608050	1.131300
204.803133	1.153600
200.189767	1.348700
202.148417	1.213400
204.257717	1.040000
203.648533	1.060000
206.876133	0.714100
194.643400	1.423200
194.444583	1.443100
192.056283	1.563400
193.244517	1.398500
191.858333	1.424500
195.837717	1.093400
198.756200	0.929100
192.988750	1.273500
189.023800	1.506900
186.847333	1.483300
191.570317	1.194200
194.669483	1.012000
198.478817	0.785000
202.620433	0.465100
190.131917	1.093400
196.282983	0.703600
189.651200	1.041300
194.443700	0.743100
187.373917	1.134800
185.175267	1.260200
189.587200	0.879600
181.873883	1.310200
187.288817	0.939200
176.121783	1.629400
179.402533	1.443100
183.856683	1.183600
172.595850	1.725300
172.653983	1.679500
178.524067	1.276100
177.786700	1.316100
187.421083	0.722800
183.125517	0.977600
173.390750	1.463100
168.312917	1.723100
176.213717	1.214900
174.893967	1.265000
182.922500	0.796200
178.079233	1.076200
172.949367	1.328600
177.239250	0.967200
176.113817	1.026200
176.169400	0.996600
179.037283	0.815500
171.455200	1.242900
164.981967	1.621400
161.002417	1.876700
166.934050	1.527300
175.234017	0.857900
177.041917	0.723500
162.863817	1.509500
167.215517	1.257800
171.569783	0.977200
164.752717	1.384400
167.536833	1.098700
169.729400	0.907500
151.030617	1.986800
172.116183	0.685600
172.095167	0.688700
175.108367	0.462500
170.233133	0.676300
169.394517	0.692600
157.151633	1.383700
158.829117	1.269500
169.654250	0.598500
163.744067	0.936500
152.909383	1.508800
153.397967	1.390700
156.123267	1.232300
155.387017	1.257800
147.324417	1.694600
154.261083	1.180000
162.166400	0.689700
153.016083	1.180900
158.680150	0.823500
152.943817	1.145900
160.323233	0.694000
148.674183	1.234300
148.592533	1.206100
148.097617	1.201400
147.888567	1.215800
146.928233	1.265200
141.157850	1.617900
154.739717	0.599000
141.451383	1.426900
150.082550	0.915600
152.257250	0.782700
146.003483	1.030300
136.588883	1.556800
146.868333	0.885400
139.035583	1.373800
139.649683	1.348900
143.715050	1.100400
143.322800	1.104600
142.928217	1.073900
140.416050	1.216500
147.145283	0.787000
148.269067	0.708800
143.778333	0.846100
145.920100	0.684900
140.211817	0.972800
137.700883	1.112200
134.451850	1.273500
134.591417	1.244900
129.714883	1.423300
135.983200	1.051500
124.340683	1.696300
124.566300	1.650300
126.009100	1.586100
125.314400	1.631700
132.313967	1.154900
128.646600	1.341000
121.201683	1.747300
128.772917	1.268300
131.131350	1.122900
132.624300	0.977700
134.439733	0.758200
127.500117	1.120100
122.673417	1.388900
128.380217	1.028300
128.112750	0.993300
126.932200	1.001700
123.523967	1.137500
119.826633	1.313500
121.847300	1.190700
121.733567	1.198100
119.651883	1.282300
119.575750	1.164600
118.569400	1.202700
120.431500	1.017600
119.173967	1.097600
118.764200	1.088100
114.063267	1.375400
118.593000	0.958800
110.661217	1.438400
114.034050	1.190400
117.218867	1.007300
115.146283	1.013500
113.700917	1.046000
110.552367	1.177400
104.753983	1.518100
119.122267	0.635900
113.759000	0.948000
106.900417	1.295000
116.402267	0.680300
117.752650	0.544500
110.119483	0.991600
110.205667	0.967100
105.239950	1.259100
107.283017	1.078700
100.184367	1.459700
106.068767	1.116500
110.031050	0.857700
112.060100	0.684600
109.474633	0.718900
99.725683	1.291900
97.960950	1.351200
99.602583	1.228900
110.495467	0.580100
109.396533	0.630100
94.549783	1.358800
90.457933	1.581700
94.814567	1.268300
92.837733	1.374700
101.526400	0.846900
99.154367	0.989600
91.466433	1.353100
93.489417	1.166000
111.218400	0.016500
93.842000	1.054500
93.685367	1.056200
93.510867	1.073900
96.247900	0.861600
87.137133	1.333300
88.009950	1.298400
89.885650	1.171200
91.763183	1.031800
95.063450	0.732600
86.359683	1.228900
91.454250	0.907800
84.745767	1.278800
91.649850	0.865500
89.808767	0.944000
94.356067	0.586400
94.653500	0.529800
90.324033	0.697600
102.036033	0.003100
94.509467	0.417200
85.957200	0.910200
79.283533	1.158100
84.014067	0.890600
83.518383	0.885400
93.100783	0.278500
84.513533	0.680800
87.206667	0.454100
84.350383	0.591700
79.751533	0.841300
74.570483	1.048000
79.720017	0.794900
75.834283	1.013200
78.356833	0.799000
78.573400	0.767400
67.472817	1.366400
73.984750	0.999000
70.196683	1.199200
77.092717	0.649400
71.140833	1.016500
68.627967	1.134500
70.115600	1.020300
76.015017	0.676100
70.770017	0.886400
76.005300	0.557400
69.085417	0.923900
67.165933	1.025800
69.979000	0.845700
70.302233	0.801100
66.519183	0.927400
67.443250	0.818400
68.694967	0.730700
69.255150	0.669000
58.325100	1.299000
71.531417	0.506300
66.847683	0.740800
58.036000	1.230300
62.969933	0.910000
60.958750	1.029600
60.904183	0.989500
62.894100	0.813900
64.540217	0.664400
57.675617	1.004600
68.300967	0.374000
57.525533	0.987700
53.687233	1.204600
56.186467	0.943700
59.918567	0.683300
63.145100	0.453900
57.853617	0.734000
67.681617	0.098600
62.349833	0.438700
62.320117	0.282200
64.923767	0.058700
45.896400	1.170900
52.097367	0.795500
52.983500	0.679500
55.027067	0.526400
52.526033	0.631000
51.149283	0.700000
44.301117	1.124900
46.207050	0.967800
47.442333	0.795400
45.199633	0.878800
50.802733	0.529600
48.619783	0.570100
50.542267	0.461900
47.848650	0.591300
46.324133	0.673600
46.983317	0.620900
44.139167	0.745100
37.211900	1.019100
38.658683	0.910300
40.863267	0.737900
34.651500	1.111800
45.587383	0.408100
40.149650	0.697200
38.263833	0.809200
32.956117	1.130600
35.428267	0.982100
38.361850	0.796200
40.325783	0.714100
30.561783	1.309600
36.056117	0.980600
40.215833	0.741400
37.745500	0.562800
41.513800	0.306300
41.545633	0.293500
34.528367	0.687800
32.047600	0.696600
35.242967	0.476600
26.289900	1.001100
30.791233	0.720700
33.449467	0.488300
38.620150	0.120000
20.567233	1.179100
23.692300	0.984300
23.625850	0.966000
27.517050	0.709800
27.802217	0.688100
31.636433	0.285700
28.566217	0.438800
30.058033	0.354400
20.723367	0.893900
22.751100	0.675300
25.038900	0.505500
27.606717	0.309800
22.152400	0.665100
20.429167	0.756200
24.801967	0.479300
15.258033	0.985000
22.063517	0.545000
18.128183	0.772000
21.464183	0.547600
23.385867	0.303200
14.293567	0.781100
10.156067	1.031600
12.168300	0.883200
19.992883	0.400000
16.125183	0.628900
12.524000	0.819600
12.230500	0.811200
9.501767	0.943100
16.662383	0.529300
12.653600	0.746400
19.627033	0.206800
16.870350	0.343500
12.530100	0.576600
15.505483	0.369400
