#Y dist(nm)	Y force(pN)
0.000000	0.095900
-7.470500	0.551900
-4.431583	0.342100
1.534050	-0.010300
-4.455783	0.361000
-3.119483	0.248200
-5.512400	0.375800
-1.590050	0.151700
-5.284550	0.366500
-6.700767	0.446400
-8.098733	0.542200
-7.546167	0.519000
-6.204867	0.442800
-4.562717	0.349500
-2.485467	0.204900
-1.373350	0.136400
-0.788383	0.125500
-4.889783	0.359800
-1.405583	0.139900
3.968900	-0.174400
-7.768200	0.514100
0.284317	0.082900
0.210717	0.040300
-1.481517	0.141900
-7.426983	0.487000
-10.191750	0.651500
-4.852567	0.346500
-10.443900	0.683900
-4.826067	0.325500
-15.985733	0.984400
-3.668800	0.262700
-4.418217	0.347400
-11.439383	0.762100
-12.265783	0.799900
-8.807217	0.582900
-1.601667	0.148500
3.357117	-0.139100
-3.634083	0.276700
-6.090067	0.407400
-3.705733	0.266800
-4.279583	0.312700
-3.543367	0.278400
-7.423483	0.496900
-13.511033	0.858100
-7.339167	0.502500
-11.575317	0.784200
-2.494617	0.228900
-9.746200	0.651500
-6.413233	0.465400
-0.531017	0.117000
-3.717583	0.318100
-0.536933	0.094600
-2.732983	0.220600
-2.036333	0.206500
4.063783	-0.150900
-5.070017	0.372000
-5.300700	0.391400
-1.145983	0.160300
6.889817	-0.332900
-8.185433	0.570700
-0.856000	0.115100
-9.074517	0.583800
-3.535867	0.257400
-2.324417	0.170100
-7.545533	0.489100
3.408750	0.024200
0.390383	0.198300
8.216967	-0.280400
3.990200	-0.011500
2.455883	0.134700
-6.623250	0.692000
1.340717	0.241000
7.741600	-0.142600
-0.240667	0.320100
0.995050	0.253700
-0.781233	0.382300
1.907367	0.196000
3.619683	0.089700
-0.481250	0.415100
0.662233	0.378000
2.780733	0.210900
-0.194233	0.401800
13.246850	-0.298900
8.900267	-0.042200
-3.263117	0.697200
-0.733650	0.543800
3.403000	0.293900
-1.139417	0.556500
-4.706100	0.784400
4.232433	0.264300
5.688083	0.326100
1.016650	0.624500
15.338950	-0.245800
9.747200	0.105200
22.588000	-0.661900
15.860517	-0.260300
7.362717	0.228400
7.033517	0.266800
-2.803400	0.974600
8.287650	0.307400
-1.887033	0.933400
1.730917	0.708400
10.232733	0.232800
18.148183	-0.168900
7.038200	0.485300
12.078633	0.221400
11.876567	0.239500
6.088050	0.578600
16.991550	-0.034900
19.569750	-0.096400
11.440617	0.357100
11.643483	0.328800
17.582950	0.009500
18.187450	0.017600
13.756433	0.280800
12.040567	0.414400
10.460700	0.517700
11.539450	0.464000
16.354217	0.169900
17.673617	0.153100
11.224383	0.543300
17.140900	0.261200
14.522800	0.402200
8.951267	0.721300
6.403100	0.871100
16.129167	0.429100
15.386483	0.438300
9.966917	0.782500
14.364900	0.531200
14.202533	0.544500
19.911833	0.278700
12.075017	0.746200
11.214217	0.824200
16.178917	0.522700
20.546367	0.238600
18.777817	0.366100
21.912233	0.264300
14.266433	0.757500
13.675917	0.802000
17.289917	0.600700
29.523200	-0.143800
9.645717	1.032700
10.401217	1.012600
16.886767	0.650200
25.708317	0.124900
19.143267	0.516700
19.006983	0.559500
15.919817	0.772900
23.156417	0.355600
24.209083	0.294600
20.679433	0.534000
19.412617	0.588400
21.323433	0.548400
22.602533	0.490800
26.288017	0.289600
26.386400	0.301400
25.342533	0.407400
25.313550	0.377900
22.195917	0.599200
29.588517	0.242500
29.942867	0.217300
35.154900	-0.087400
25.596933	0.484800
26.866333	0.416100
22.670800	0.654200
21.237233	0.792000
28.813667	0.356500
33.492233	0.065400
31.102367	0.221500
34.394850	0.124100
19.429567	0.985000
32.770217	0.215800
29.278383	0.447300
27.955417	0.537700
22.194383	0.897900
25.965967	0.691300
33.333300	0.278900
40.195183	-0.103800
32.197467	0.358300
35.227400	0.243500
28.706933	0.687000
28.748417	0.704800
32.868800	0.465500
35.276150	0.319700
33.056567	0.447400
37.294750	0.220100
35.955367	0.377200
29.162383	0.808200
33.291883	0.559800
32.531083	0.617100
30.520617	0.771100
35.846650	0.462800
36.444317	0.435400
30.684833	0.806700
22.806250	1.280300
34.692467	0.583300
27.589767	0.988000
32.358467	0.731800
38.310783	0.460500
37.088750	0.522800
22.129633	1.429800
31.040400	0.920900
38.990983	0.506700
35.920400	0.708800
42.554833	0.349500
42.513850	0.362600
37.214700	0.678200
34.810350	0.813500
41.160083	0.478500
37.258633	0.735900
33.690183	0.963300
36.581900	0.809000
35.573983	0.889800
34.180383	0.990600
40.781217	0.590200
40.523217	0.691300
38.750467	0.801100
43.211133	0.555000
47.011250	0.309200
47.624567	0.340300
40.352733	0.781800
47.695167	0.396100
50.795717	0.205000
37.439767	0.949600
42.236883	0.683100
42.277867	0.761800
41.803667	0.821800
52.081650	0.193100
34.936450	1.256000
44.168867	0.730300
47.175000	0.572900
55.075083	0.177300
45.698633	0.739200
48.449317	0.567700
55.687983	0.120900
53.052167	0.304000
51.277333	0.497700
49.330017	0.574300
48.028583	0.738000
49.935017	0.619900
50.853683	0.545100
49.566333	0.604200
61.189700	0.027500
53.742400	0.476600
55.449850	0.345200
57.781117	0.225100
43.221783	1.142400
61.207600	0.116300
57.715267	0.355600
58.473633	0.295800
54.400633	0.513000
58.181483	0.307800
49.704250	0.830300
57.562567	0.417400
54.323800	0.641000
54.026583	0.686100
56.941267	0.480700
57.420383	0.480000
56.595583	0.552900
54.763167	0.735100
60.506767	0.410500
56.055667	0.691300
57.329867	0.608200
59.835183	0.473700
60.159167	0.418600
62.620000	0.393800
58.726367	0.616900
60.295133	0.535800
57.308717	0.702700
80.235550	-0.598900
63.153900	0.446300
63.292767	0.438400
63.606367	0.400000
74.310083	-0.168900
66.657000	0.277400
62.365467	0.556300
62.465133	0.588900
64.480433	0.510900
61.695750	0.663800
51.659067	1.276000
64.124283	0.544500
57.737400	0.958100
63.549050	0.619100
65.895383	0.491400
60.427683	0.815400
56.032483	1.070100
59.527250	0.952400
65.778817	0.602500
62.244067	0.856900
64.248267	0.772000
66.005883	0.657000
64.233633	0.790200
61.091183	1.081800
68.655083	0.636000
62.326167	1.044100
66.720267	0.783100
70.832267	0.538900
70.055950	0.561500
63.485133	1.092000
69.400167	0.713500
67.346783	0.842700
61.651383	1.173900
64.190350	1.112900
74.970683	0.512400
74.884883	0.534000
68.367017	0.928900
72.917200	0.647300
71.782117	0.697600
75.695000	0.490400
69.795433	0.859200
65.446133	1.126200
75.828700	0.527000
69.890950	0.918200
75.140133	0.600900
85.308083	0.008400
76.417567	0.599200
75.472283	0.657900
85.604917	0.070900
76.958050	0.592700
73.132850	0.922100
78.786950	0.588800
78.695883	0.646500
75.652183	0.796200
78.643783	0.654900
80.998083	0.495000
79.080733	0.711000
83.499967	0.439600
80.554817	0.599500
84.974283	0.350700
85.234883	0.453600
84.063500	0.517100
85.572567	0.430000
86.520900	0.382400
80.531050	0.812000
81.712283	0.725400
89.846900	0.235400
82.502183	0.669000
84.248683	0.604200
91.403817	0.235000
89.329167	0.326800
91.577150	0.215600
86.751417	0.515200
87.414600	0.564800
92.312967	0.294100
95.748033	0.091500
94.633917	0.137800
97.589483	-0.026700
96.357950	0.060200
84.758417	0.782500
86.333117	0.712300
94.874267	0.235000
90.735783	0.467100
85.875017	0.754300
88.951800	0.589700
86.529267	0.853900
82.940167	1.025800
98.706850	0.098600
94.093017	0.398800
92.661967	0.554200
89.865550	0.762800
78.202317	1.459300
85.480333	1.044300
89.196550	0.854300
90.659383	0.775200
92.143850	0.735500
91.595117	0.825100
94.714333	0.636300
91.507633	0.854400
96.647517	0.581200
95.413700	0.659300
95.082583	0.667500
97.444750	0.623900
91.263050	0.989000
93.237000	0.880100
95.589367	0.713800
94.287267	0.886000
95.465217	0.846100
97.235317	0.792700
98.020100	0.715100
91.978167	1.088500
96.532117	0.835300
99.662167	0.754300
94.407250	1.064000
104.023933	0.492000
97.731317	0.885100
98.965267	0.851500
103.836217	0.602800
95.935000	1.080200
101.295617	0.770800
108.391100	0.349700
110.278183	0.242700
113.343967	0.057400
103.923533	0.643200
103.310917	0.670300
109.722667	0.346000
104.194150	0.647300
105.284833	0.619800
102.719217	0.748600
111.126800	0.305300
102.323600	0.815000
103.480017	0.769300
99.510450	1.007300
110.317150	0.388400
111.469467	0.338200
109.798117	0.541000
110.311183	0.522900
118.466733	0.046200
109.858867	0.560200
106.913517	0.769000
110.232833	0.566100
109.671333	0.660900
110.120867	0.669700
104.790150	0.996200
109.541900	0.734000
106.744850	0.912500
110.077550	0.780500
113.589667	0.576700
107.411483	0.992700
117.601883	0.396900
112.139633	0.722100
119.669017	0.275800
111.502317	0.887500
113.609917	0.745900
105.799933	1.204200
105.554283	1.246500
112.342267	0.916900
111.324067	0.967600
120.761033	0.483600
113.477150	0.939800
122.005717	0.418600
113.665433	0.935700
113.144550	1.041200
122.210633	0.533400
120.981900	0.638900
117.556183	0.831000
114.179467	1.036000
116.499500	0.921500
118.302283	0.838200
121.915783	0.650100
119.711050	0.809000
115.932900	1.029800
119.061250	0.860000
122.915983	0.707100
111.294667	1.422400
114.456283	1.285800
118.658633	1.020000
124.551483	0.706200
119.075717	1.031800
119.879150	1.086500
124.295733	0.842700
127.831767	0.695500
120.474517	1.098700
124.116250	0.886100
121.552483	1.032600
126.196467	0.826600
131.516933	0.541800
110.667417	1.840000
121.621150	1.207100
120.292367	1.282300
130.646883	0.674100
125.387717	1.022800
123.457533	1.227600
129.034100	0.875600
128.932967	0.899800
136.097767	0.480700
136.235600	0.569900
137.871683	0.453300
130.002700	0.927800
121.132967	1.479700
127.263333	1.221900
133.846900	0.812000
130.092233	1.071600
132.806633	0.885900
141.647567	0.417400
134.353200	0.848000
134.573617	0.832900
130.466967	1.032700
134.693017	0.910000
135.508583	0.867300
131.407017	1.098700
133.901533	0.973200
133.742283	1.035900
141.784033	0.542100
134.028217	1.027000
132.250367	1.178200
146.238217	0.366100
138.022367	0.863800
128.930183	1.455600
130.750867	1.383700
134.381700	1.175600
133.145683	1.326000
133.233700	1.307600
137.842617	1.015900
136.204500	1.123700
139.801517	1.037500
140.474900	0.983000
131.942833	1.507500
141.812783	0.899400
154.548733	0.207600
147.093633	0.663600
129.950167	1.717300
142.773617	0.970600
146.363317	0.745000
143.701867	0.906700
133.854883	1.617900
144.119950	0.995000
156.509750	0.261200
153.325750	0.443900
145.316783	1.015800
151.777917	0.712300
159.754033	0.229800
150.996083	0.729600
142.724850	1.205300
150.388767	0.807400
151.858667	0.767800
148.392583	0.965400
149.342800	0.922100
155.820350	0.630500
163.172850	0.193700
147.068050	1.117400
148.183900	1.074200
148.035550	1.193000
146.878950	1.290800
152.150533	1.000800
152.556417	0.999700
159.959167	0.580600
157.244933	0.734100
151.953233	1.082100
161.441417	0.526300
162.978267	0.457900
152.580467	1.059100
155.537250	0.884300
155.006500	0.931400
166.062600	0.250700
156.792983	0.837600
157.908217	0.885400
159.279733	0.831900
155.629150	1.078100
164.357200	0.577700
162.156133	0.710400
155.886850	1.101800
162.158417	0.740500
159.003617	0.935200
157.757417	1.027000
154.888583	1.259400
165.446350	0.609200
155.491400	1.226300
152.729467	1.386100
160.541400	0.957800
158.067867	1.146400
152.717450	1.530500
157.679033	1.220700
158.835350	1.169900
153.920100	1.485800
164.925500	0.918800
161.925800	1.084700
163.925917	1.027000
165.333083	0.942300
158.137517	1.391500
170.168850	0.667400
172.485167	0.589600
163.575683	1.163400
164.969383	1.152900
163.117117	1.240900
169.302150	0.899600
167.403783	1.022400
161.695083	1.473900
171.358733	0.893100
172.164117	0.834700
165.611767	1.221100
160.242367	1.586500
172.243533	0.940800
161.036933	1.619700
174.983967	0.845500
175.610317	0.794800
175.749917	0.783400
175.127467	0.832900
175.997300	0.882500
176.684683	0.855900
186.703100	0.271700
174.886183	0.991500
173.460417	1.069600
175.745817	0.930100
175.724433	1.003200
179.631567	0.800200
169.234733	1.467600
176.837883	0.979500
179.141850	0.852500
179.084300	0.918800
176.360100	1.078100
164.786417	1.795600
172.217900	1.357400
176.074833	1.143900
180.906817	0.868000
178.465583	1.091100
173.857617	1.371400
178.329617	1.147600
181.704333	0.939300
181.777483	0.940800
175.972333	1.264800
173.767100	1.484600
181.782550	1.073600
191.742167	0.459400
184.059967	0.909400
173.411317	1.600300
184.492583	0.973200
175.713750	1.550000
178.759667	1.353700
183.444950	1.084700
189.715817	0.722200
194.197017	0.518200
187.810367	0.939400
192.385017	0.711400
185.448417	1.136500
184.126767	1.219600
183.334817	1.243600
187.001200	1.069700
181.015400	1.459700
187.909550	1.088300
192.113783	0.806700
190.286167	0.931000
183.110367	1.402600
188.285833	1.123800
189.848033	1.030800
189.090033	1.093200
193.820867	0.829600
187.831100	1.185200
194.291300	0.879500
192.196600	1.045400
195.410200	0.893300
192.720283	1.035300
189.690800	1.225700
186.907650	1.382900
197.657067	0.889900
197.225017	0.878500
190.707267	1.291000
189.130617	1.394800
198.182133	0.918300
190.909800	1.379300
200.535483	0.788400
198.445100	0.946400
197.062817	1.027000
197.676817	0.987700
194.228183	1.267500
196.330950	1.201400
199.208467	1.053700
196.492500	1.247300
201.506233	0.948300
195.482433	1.311000
198.177950	1.202300
192.754833	1.598400
197.577733	1.299000
202.958283	1.040400
200.028017	1.219900
210.239767	0.602200
200.650950	1.136300
196.471317	1.435000
195.497817	1.523800
200.647500	1.245500
198.150083	1.393500
190.067450	1.945400
188.854517	2.092900
189.569683	2.118000
195.363183	1.757100
196.843767	1.635400
194.874833	1.805700
201.207017	1.448500
204.121750	1.305800
203.340617	1.392700
207.035733	1.209000
206.848167	1.230400
204.367617	1.360600
208.531050	1.126700
204.297267	1.382200
200.324650	1.667600
212.777083	1.031400
209.060300	1.266200
211.066683	1.166700
210.613817	1.210600
208.795850	1.359500
215.002400	0.992000
210.747283	1.239300
219.963717	0.673300
214.759483	1.110900
211.667917	1.302700
201.395617	1.933300
206.762367	1.591600
209.036967	1.522300
206.971517	1.709500
211.167667	1.525300
213.014750	1.406300
208.907283	1.649400
213.763217	1.383700
216.841083	1.251300
222.245967	0.982600
220.966050	1.055300
225.196533	0.827700
224.762550	0.852200
219.477467	1.165600
224.704033	0.830700
226.819133	0.838800
232.276500	0.508400
224.852300	0.959900
209.043417	1.885600
215.583317	1.505200
216.980700	1.439300
223.497400	1.145000
222.059550	1.265900
215.740067	1.663900
228.390200	0.941000
220.371900	1.440500
220.228417	1.464700
221.601133	1.415100
225.595517	1.180000
233.589300	0.677300
226.076983	1.149000
222.010717	1.477300
226.316983	1.284300
226.344233	1.293000
227.218750	1.258400
231.245533	1.009500
238.435500	0.588500
234.854967	0.847900
241.484583	0.480900
236.335533	0.788700
223.528450	1.573400
228.060317	1.320700
222.140050	1.679900
237.748167	0.764800
233.438467	1.155700
229.570100	1.379900
228.512117	1.465000
225.206233	1.663200
230.852150	1.438700
234.588017	1.243600
235.098950	1.278800
233.333750	1.354700
231.099117	1.514800
234.872100	1.297700
228.029067	1.829500
242.796317	0.926800
239.341317	1.147600
234.656417	1.415800
240.830883	1.140000
240.467567	1.158400
238.745533	1.296900
248.075283	0.764100
246.981417	0.809500
238.559517	1.317700
241.249250	1.205300
249.047333	0.827100
247.503217	0.901900
236.778533	1.577400
242.707600	1.255700
243.620450	1.197500
239.937383	1.397700
243.864617	1.183300
252.232983	0.675600
244.082983	1.163400
237.857850	1.517600
251.554867	0.875500
233.828383	2.005200
245.712717	1.352200
254.423583	0.842400
248.204883	1.197600
244.843067	1.391500
253.624817	1.001800
250.224733	1.173300
255.521133	0.859200
253.150750	1.017800
247.203183	1.499100
249.181417	1.352200
252.238500	1.179500
250.742500	1.304600
250.772367	1.299700
260.987283	0.675600
256.891967	0.922900
251.595700	1.251200
242.895683	1.766100
252.427233	1.244700
250.746550	1.360100
256.127367	1.053700
244.218283	1.759800
250.646883	1.490400
252.344317	1.386100
254.726567	1.312900
253.076317	1.426300
257.009617	1.221100
255.022217	1.337800
261.424267	0.949900
261.353100	0.947300
266.420350	0.820700
260.709000	1.144400
255.171100	1.475000
255.560917	1.433500
250.386250	1.799300
254.358050	1.579700
260.474817	1.221100
262.257833	1.139100
263.157083	1.089000
259.250067	1.322800
259.195717	1.441000
255.746700	1.739000
264.442600	1.211300
263.815833	1.273500
265.106767	1.177600
267.544367	1.025500
266.452100	1.078100
259.929050	1.466900
258.510717	1.612000
263.970317	1.491700
261.595017	1.638400
260.947000	1.682600
271.054317	1.086100
257.785133	1.884900
258.070917	1.859200
260.738433	1.715700
265.242950	1.447400
259.538800	2.049800
262.697383	1.884900
269.818400	1.494500
266.664567	1.660300
263.319350	1.949300
272.985450	1.407800
264.936400	1.887200
266.414850	1.817300
264.729583	1.928400
267.002117	1.786000
263.004333	2.069700
268.747217	1.780600
276.518133	1.305000
266.898817	1.884100
273.743417	1.470400
270.041683	1.701600
286.932400	0.698300
275.450817	1.379800
272.855967	1.591000
273.484200	1.773800
278.556433	1.496400
278.729633	1.482000
275.018867	1.716100
274.622617	1.746100
277.895750	1.541000
266.495250	2.226500
265.202333	2.354400
270.812617	2.226400
278.715900	1.779500
284.872600	1.426400
279.397467	1.780300
291.640500	1.123700
294.899217	0.970900
290.730717	1.231600
285.198000	1.533800
282.297517	1.712800
282.796800	1.702100
284.720867	1.676200
293.528533	1.216500
291.437633	1.324200
288.279233	1.527900
285.487850	1.735100
292.011817	1.313500
293.150833	1.252500
294.518933	1.167600
290.689500	1.441400
291.839783	1.560600
290.053350	1.707500
292.886450	1.519400
281.802850	2.172800
289.815900	1.714100
286.203867	1.922200
291.284867	1.631800
294.397367	1.464100
295.470767	1.596700
289.870133	1.962900
294.200700	1.725200
296.995600	1.550600
303.121133	1.161000
298.935217	1.392400
302.939433	1.146600
299.966400	1.323800
296.630683	1.732800
303.432967	1.366000
301.248667	1.544500
302.678050	1.465400
299.624433	1.653300
296.271200	1.862300
299.110050	1.796000
300.773417	1.731100
303.902300	1.547000
309.440950	1.208000
309.480517	1.211500
311.111417	1.130200
304.536583	1.538400
314.798817	0.966700
301.956417	1.716100
304.329600	1.588700
304.693767	1.555000
303.882417	1.663000
309.056533	1.353600
314.848317	1.045000
302.840100	1.754300
305.605500	1.604600
308.399017	1.461700
306.042317	1.716400
309.278050	1.549400
314.323667	1.257100
313.489400	1.311500
314.747517	1.320700
317.599183	1.183800
312.695067	1.506100
311.658917	1.543600
306.866167	1.828300
305.565300	1.916000
311.727050	1.631600
313.001217	1.681600
306.916850	2.037500
313.481450	1.671800
318.862900	1.372400
317.398250	1.582400
318.357117	1.536400
316.636800	1.637600
315.910183	1.670400
312.363733	1.896000
314.066533	1.788600
321.231667	1.501000
324.675483	1.306200
321.693083	1.507200
320.422467	1.559800
316.505933	1.836600
313.575500	2.017700
309.997400	2.387600
324.064417	1.565200
312.569667	2.271100
323.078550	1.651400
329.763750	1.257800
329.285967	1.264600
326.753917	1.383700
318.211183	1.907100
325.162383	1.761300
332.483650	1.333700
326.001483	1.729800
320.196100	2.059100
326.177783	1.752900
327.766050	1.749200
325.861817	1.868800
329.039833	1.699800
333.826900	1.416800
335.024583	1.349100
338.773617	1.168600
326.746367	1.996600
334.504400	1.557500
334.617567	1.546000
335.554583	1.497300
332.486100	1.784900
330.654367	1.910800
337.314033	1.507200
332.596667	1.778800
332.790717	1.775500
337.191917	1.524400
327.349483	2.111400
337.458200	1.517000
327.868767	2.100700
331.837567	1.861000
339.339567	1.506100
336.399800	1.710200
332.702517	1.952200
340.604217	1.493500
343.405267	1.341700
337.637083	1.668000
340.429900	1.608800
342.653817	1.560100
341.692083	1.651200
338.839850	1.821200
335.173200	2.052200
345.688150	1.447400
340.941983	1.725600
336.340150	2.014100
343.940633	1.650300
340.868467	1.991200
349.240900	1.507100
350.413883	1.476300
348.811800	1.573400
344.364367	1.957300
347.663033	1.769700
350.976417	1.597000
353.132350	1.451900
345.742817	1.889500
348.008500	1.749500
348.507583	1.812300
351.164617	1.675900
344.658783	2.034000
345.522050	2.003900
357.579833	1.278000
349.619033	1.765500
349.965317	1.874500
351.464500	1.802000
353.045600	1.734200
347.991033	2.041200
353.189783	1.740300
354.934017	1.668100
355.348400	1.631900
356.035450	1.613900
362.439200	1.371200
359.665350	1.646600
361.312733	1.554300
356.263367	1.870300
351.798217	2.124100
354.954567	1.933600
357.288333	1.827000
348.529283	2.373900
362.947550	1.551500
362.816783	1.798500
363.141683	1.786800
355.257567	2.275300
354.399367	2.353600
360.637633	2.033400
358.741700	2.163200
371.627850	1.439600
359.845183	2.153400
361.836733	2.046600
367.492667	1.708900
366.673033	1.875900
369.935600	1.704500
369.513533	1.727400
371.527450	1.624400
372.201883	1.584600
377.826500	1.234700
373.149317	1.529800
373.810450	1.482500
369.858850	1.710800
362.345867	2.155000
369.328117	1.813000
367.067683	2.086500
370.892983	1.880700
373.616300	1.766600
375.848167	1.622500
368.023767	2.082100
360.769833	2.525700
369.516550	2.063600
375.997067	1.695400
369.580083	2.118000
370.806833	2.070000
370.009033	2.130300
361.009483	2.669400
375.647217	1.957600
371.726317	2.197300
377.292633	1.881900
380.201967	1.700200
382.586633	1.671300
376.021550	2.108000
379.041583	1.963200
374.112850	2.267900
380.584733	1.895100
385.683733	1.581600
384.809800	1.708100
379.324450	2.067200
380.020017	2.061100
387.345083	1.651200
391.554267	1.400200
395.314117	1.150300
388.837033	1.542900
385.776433	1.843500
374.580467	2.528500
390.758333	1.558800
393.876183	1.397700
392.853233	1.598400
394.919550	1.460300
384.763900	2.074700
380.066100	2.377100
383.736667	2.174800
390.350033	1.774200
388.328933	2.025300
383.059817	2.340100
385.418350	2.191400
388.342933	2.032200
390.885917	2.013100
382.952983	2.498700
397.000783	1.693500
397.172733	1.721700
391.599450	2.058500
387.437950	2.314700
393.926617	1.936600
397.849617	1.711300
393.667083	1.973700
397.967433	1.759800
392.880283	2.083500
396.022483	1.886400
389.377450	2.322500
402.126967	1.665700
398.554900	1.886300
399.709733	1.841700
395.087533	2.110800
392.998250	2.250800
402.067767	1.704400
402.745700	1.786700
405.215133	1.671600
397.297850	2.204000
396.396283	2.277900
400.017217	2.087200
398.093650	2.190200
402.091017	2.020900
402.900117	1.970500
407.248633	1.719300
398.893617	2.239300
404.939600	1.952000
408.942417	1.765000
403.043017	2.125300
402.617817	2.198800
404.566983	2.093100
400.611867	2.328400
409.559367	1.832800
409.210967	1.952800
405.917000	2.149400
402.280333	2.391600
409.132050	1.999100
404.771683	2.249100
419.801133	1.354800
415.371500	1.755500
406.268583	2.316000
409.137283	2.150400
414.439550	1.825100
400.285233	2.805600
408.057150	2.376200
411.634317	2.254300
415.094950	2.049800
416.477883	1.975200
416.823467	1.950100
422.051450	1.703600
416.949867	2.003200
414.459917	2.194900
418.532567	1.948300
424.145533	1.632300
422.238633	1.771800
426.174417	1.546300
415.858317	2.155000
417.127717	2.090200
407.835833	2.666400
410.522117	2.566600
422.114767	2.017000
419.781500	2.150900
414.101650	2.568200
416.296267	2.454400
421.145000	2.180900
425.716450	1.918700
409.809217	2.926900
415.683367	2.621500
423.711700	2.233400
427.002533	2.034600
424.024833	2.218500
420.125800	2.474600
425.104200	2.314700
430.853367	1.991500
422.686500	2.472500
420.993817	2.575600
430.090950	2.068700
429.859367	2.122000
432.134067	2.041900
433.738917	1.949500
430.772200	2.126000
429.940233	2.178900
427.929467	2.342800
427.387683	2.440500
436.254617	1.934800
431.319300	2.276300
438.463283	1.850100
437.583183	1.896600
431.480400	2.251100
437.357000	2.028200
430.028800	2.480300
443.313567	1.713400
443.902350	1.694000
441.637950	1.820300
445.028483	1.602600
438.447500	2.039300
442.784867	1.799200
430.999683	2.503500
431.348733	2.500500
434.550033	2.380200
446.897517	1.721800
438.207933	2.248200
436.508250	2.395400
442.835783	2.031300
437.705000	2.364500
430.969217	2.805100
440.838517	2.340400
444.118717	2.165200
439.361550	2.455700
444.998500	2.140700
447.691100	2.095100
442.464500	2.452100
438.912533	2.706300
452.361567	1.905700
449.521783	2.083500
447.943650	2.158100
455.293100	1.842800
455.805300	1.836800
450.537650	2.214500
446.335150	2.462900
452.840617	2.041900
447.766800	2.385500
457.672133	1.893600
459.893883	1.795200
456.168383	2.055000
455.349667	2.140900
459.672833	1.875900
460.865550	1.801400
457.359300	2.055800
458.281650	2.123900
457.200233	2.180100
460.306983	1.997700
461.503033	1.915200
463.601650	1.824200
459.412233	2.067900
460.483750	2.032100
465.617133	1.731300
460.018150	2.081300
453.607883	2.429700
460.129583	2.189400
456.840133	2.415600
459.461067	2.342200
463.447933	2.106000
457.155400	2.488400
461.722567	2.236900
448.806867	3.128500
464.159883	2.228400
465.388317	2.186200
466.325950	2.092100
468.802083	1.982400
464.387683	2.294400
466.517233	2.193000
460.026450	2.605400
468.742800	2.106800
463.387517	2.419900
467.359050	2.221100
465.734400	2.428100
465.601667	2.421400
470.824850	2.143700
480.607683	1.565700
468.114933	2.293200
468.565150	2.282900
473.592883	2.072100
471.018783	2.215200
478.189933	1.803300
476.041267	1.928200
476.523400	2.019200
466.715200	2.638700
471.173367	2.434000
470.242017	2.502100
475.171517	2.243800
482.310267	1.826500
475.578650	2.334800
471.333400	2.647700
478.215567	2.285800
470.211633	2.736900
480.767767	2.118700
471.956317	2.656900
476.487233	2.445300
481.531167	2.230900
477.067150	2.512700
481.493933	2.262000
486.387083	1.984200
476.994050	2.668700
484.805333	2.208600
484.900817	2.224600
470.467367	3.073300
478.145833	2.618400
482.504183	2.361000
488.651767	2.125000
482.673467	2.481400
476.222950	2.861300
478.191867	2.759200
483.985800	2.464100
488.096383	2.228400
485.529000	2.441300
483.473833	2.588100
492.824133	2.055000
484.319050	2.575100
481.054600	2.788700
488.587250	2.343200
490.595150	2.274200
493.190733	2.182800
491.987417	2.273200
495.077917	2.101900
488.569233	2.529900
492.832517	2.360500
490.973300	2.495600
492.226750	2.448800
493.618217	2.381800
498.500750	2.100800
497.182167	2.169700
499.529083	2.158800
499.725633	2.166600
503.615317	1.992100
493.092217	2.606800
494.335883	2.528400
501.486217	2.115700
503.298067	2.121700
498.395583	2.450700
511.607617	1.663900
503.473583	2.175300
502.858350	2.186600
507.685717	1.900300
500.977083	2.361900
500.554967	2.408200
496.257583	2.667900
503.778600	2.235800
511.266633	1.923900
502.171483	2.492100
505.096433	2.335800
506.857583	2.219100
509.538150	2.080400
525.919883	1.252500
512.018950	2.085800
514.725267	1.960000
514.034167	2.017300
505.851833	2.526300
514.632450	1.994000
514.342633	2.108100
520.618783	1.742700
521.374700	1.773500
513.824367	2.214100
516.904867	2.023600
508.932600	2.485100
521.970067	1.822600
517.153633	2.137200
503.201733	3.024300
513.096933	2.426400
504.554567	2.963200
512.961333	2.472300
529.789067	1.635400
517.251767	2.366200
521.144833	2.129100
512.946100	2.618900
516.559133	2.427900
523.293600	2.149400
516.069400	2.598500
519.131583	2.419800
510.054983	2.968500
515.943250	2.767400
517.031733	2.724900
518.278167	2.699200
520.982417	2.559400
509.958017	3.247900
521.435133	2.578800
515.309133	2.964000
514.255900	3.023600
517.203917	2.913100
523.797383	2.531700
529.788500	2.199800
531.618817	2.068600
524.287567	2.539300
529.960783	2.218800
530.045783	2.291100
529.377767	2.323900
527.466317	2.408200
534.661383	2.005200
527.184700	2.516600
525.750433	2.684400
527.415900	2.638700
524.554333	2.846700
531.606633	2.429400
527.148317	2.717200
534.873767	2.285800
529.323267	2.739700
533.746667	2.471800
535.434050	2.375000
536.867167	2.317300
529.233900	2.841200
529.511183	2.837400
541.108783	2.209800
540.182883	2.283600
543.964683	2.098500
539.291650	2.339000
545.103483	2.118600
548.369667	1.969300
548.119317	2.029900
542.799883	2.340900
535.367600	2.768300
532.902233	2.929200
537.569033	2.751600
548.049500	2.177000
538.887833	2.747400
549.983350	2.125700
545.140200	2.416100
543.051617	2.540200
550.894550	2.142200
539.149467	2.919700
539.295683	2.917500
544.408017	2.642500
547.025933	2.514300
541.761217	2.872600
549.774750	2.410100
548.807133	2.543400
545.116967	2.767600
542.927833	2.897700
543.165950	2.905400
543.653783	3.000900
552.305417	2.528800
557.538483	2.238600
561.060533	2.042700
547.792700	2.824100
546.482767	2.894800
537.069867	3.582400
558.021350	2.366900
543.956250	3.266600
555.106850	2.572100
562.248533	2.156700
562.975450	2.141600
558.566333	2.443200
558.268750	2.448800
551.162483	2.882100
562.789100	2.204900
564.535033	2.101800
561.014217	2.426800
564.557800	2.243000
559.811517	2.578600
560.453717	2.519200
564.286917	2.308000
562.168417	2.427400
564.752917	2.421100
562.199400	2.597000
561.980250	2.595800
568.307917	2.248000
566.991333	2.440500
563.831433	2.645400
570.160267	2.325100
568.150417	2.460100
565.103817	2.619400
563.091867	2.742700
573.349017	2.176900
571.520367	2.314300
572.649317	2.269000
571.146400	2.392400
568.285350	2.566400
579.383750	1.908200
570.185400	2.493200
570.769700	2.505500
562.146333	3.037800
564.258833	2.938200
562.259067	3.064900
573.506533	2.482500
572.107667	2.604700
571.344667	2.732800
568.624650	2.924900
579.160500	2.313800
571.546367	2.776000
561.794233	3.508500
569.703567	3.050200
576.029967	2.712400
575.357117	2.757100
569.699983	3.207300
564.828900	3.541100
579.172367	2.743300
576.923683	2.879700
587.232817	2.305300
577.924700	2.849000
584.069383	2.573400
575.753000	3.085700
582.571450	2.768300
583.291750	2.737400
584.705517	2.653000
584.315067	2.664700
580.654817	2.911000
588.380517	2.521000
583.597733	2.796300
586.256133	2.662200
586.444467	2.678500
584.658350	2.781500
587.478150	2.638100
596.442400	2.227400
595.885717	2.257600
585.337683	2.895000
591.460283	2.550000
595.225933	2.477700
592.827067	2.642500
588.165867	2.975800
596.131350	2.518100
599.994583	2.270700
593.780117	2.621500
592.289800	2.788700
590.881433	2.879100
591.688367	2.896300
591.428117	2.918500
587.863733	3.174000
597.853217	2.584000
602.014783	2.532300
599.905267	2.610400
599.930350	2.618900
596.033733	2.835000
605.999983	2.333400
598.827317	2.802400
600.680033	2.741700
603.048400	2.627000
600.559517	2.781100
601.557533	2.730300
599.190083	2.916600
602.422633	2.832600
609.181033	2.449200
609.070700	2.482700
612.937083	2.255100
608.834800	2.485100
612.506733	2.277600
614.039800	2.292200
608.650083	2.623200
619.547783	2.061000
614.198900	2.366000
607.277467	2.777500
604.897633	2.914500
614.730300	2.485100
613.158950	2.570300
606.209167	2.990500
603.566000	3.174800
628.199500	1.845200
609.193000	2.983400
619.030383	2.401200
610.861667	2.902600
618.478717	2.473600
611.664717	2.987200
610.042433	3.121500
619.769450	2.571800
610.286783	3.153300
623.796850	2.388500
622.251867	2.483200
612.747483	3.064800
612.840867	3.071800
611.236533	3.315900
621.657083	2.702100
614.486150	3.122900
622.863450	2.634200
620.592883	2.912100
619.314933	3.004800
616.364133	3.245100
623.493583	2.848800
623.285850	2.813300
623.001283	2.863500
630.797100	2.533100
627.361067	2.760700
626.285217	2.885800
629.763250	2.659100
631.349917	2.553700
622.754983	3.060900
616.890533	3.607500
629.720267	2.786200
629.061833	2.826000
624.081283	3.129600
627.515400	2.969900
628.773700	2.983400
636.169333	2.562600
631.097633	2.895600
632.169133	2.835000
638.510933	2.466600
636.395867	2.592400
635.751867	2.756500
636.252233	2.726400
623.353017	3.502600
632.834817	2.968900
640.433067	2.524600
635.889117	2.785600
644.956383	2.386500
639.705467	2.724400
636.570550	2.913500
643.313100	2.503100
643.900717	2.586100
644.589717	2.589400
621.903717	4.021900
630.336417	3.517900
637.826033	3.090000
634.424717	3.310600
644.991833	2.720700
635.092883	3.405000
640.484983	3.090900
644.622383	2.850900
646.516017	2.731600
643.847067	2.880700
645.028700	2.849300
646.043417	2.936200
645.965467	2.962000
644.709967	3.024100
648.451417	2.805100
647.977400	2.953100
655.225367	2.538400
652.467167	2.744200
660.049650	2.281400
654.978267	2.588200
655.384050	2.548100
648.081100	3.135500
657.284933	2.583000
663.262933	2.247300
658.203483	2.529000
650.550700	3.105800
658.106217	2.686300
657.043000	2.768300
656.516000	2.841200
659.702083	2.664300
658.502417	2.706700
657.520917	2.808400
676.176317	1.780300
656.364917	2.950600
664.455617	2.455000
662.424917	2.572900
660.144900	2.771600
662.688233	2.627100
656.285017	3.046300
664.009450	2.589200
663.896683	2.625300
662.530450	2.680700
661.949083	2.716500
664.128967	2.599000
650.796583	3.564300
655.425500	3.296600
660.497383	3.029100
663.159417	2.880700
660.577583	3.170700
649.746850	3.848000
656.361367	3.504400
662.119917	3.183400
668.932467	2.803300
672.708800	2.582600
668.089800	2.943800
676.315233	2.518800
683.227833	2.128500
674.063967	2.655400
659.321467	3.544600
670.067617	2.900500
671.030283	2.855100
674.380617	2.792200
678.075233	2.577900
678.553400	2.612600
681.404517	2.437900
676.860317	2.708500
671.484583	3.039000
680.313567	2.632900
672.614850	3.122600
670.167783	3.283200
670.250500	3.284300
678.635317	2.837200
674.749733	3.098400
676.606750	3.014900
677.526717	2.946700
675.730450	3.059000
675.231233	3.096300
674.335933	3.294900
679.142750	3.014900
679.831650	2.972900
688.870433	2.429400
694.134433	2.238300
690.154517	2.490400
690.396950	2.516600
688.320433	2.651700
677.807667	3.282400
684.235433	2.902800
682.930483	3.043500
688.892450	2.810900
683.569683	3.167700
682.811317	3.259000
682.182050	3.307100
684.728183	3.161700
693.449033	2.661000
689.420217	3.042400
686.238550	3.275600
696.720533	2.713800
690.537000	3.075200
691.565933	3.019500
690.806467	3.079300
688.881383	3.283500
682.456033	3.660900
694.994267	2.942200
699.864033	2.666700
702.130333	2.640900
697.867867	2.915200
699.823417	2.844400
699.793900	2.852300
699.455267	2.886400
701.807783	2.736300
699.227567	2.967700
701.278733	2.916600
704.773850	2.768300
695.196883	3.377400
699.439667	3.125800
705.183300	2.777000
702.356500	3.002000
708.532417	2.752300
711.266900	2.588600
710.671767	2.602600
702.868550	3.150800
699.987600	3.384800
702.876817	3.217900
712.667900	2.676800
705.593533	3.115200
708.617117	2.936200
700.671467	3.411700
712.806150	2.828300
712.532800	2.870000
701.703817	3.565600
710.069067	3.066400
714.511450	2.808500
713.511350	2.869100
708.969867	3.265600
710.168633	3.207600
713.800267	3.006100
712.947250	3.071900
713.801983	3.121500
709.492500	3.402200
708.249533	3.507000
709.210167	3.515500
712.539000	3.323000
712.828333	3.303300
721.150367	2.812900
715.814900	3.168200
714.179617	3.342100
719.668467	3.097300
721.325033	3.000000
723.393150	2.881100
721.555017	3.006400
726.490383	2.766600
726.772633	2.735400
716.457783	3.372600
720.854183	3.119400
714.290350	3.557900
716.462567	3.462700
716.059367	3.535900
723.108600	3.128900
726.783800	2.924000
728.559167	2.818300
717.130550	3.602300
726.310433	3.102300
729.820700	2.932700
725.833883	3.182400
724.922717	3.262900
722.001400	3.452000
725.362583	3.280500
722.577967	3.569500
724.280133	3.459300
728.910133	3.204300
724.229517	3.526900
729.537350	3.252200
734.650183	2.981400
725.004850	3.619700
723.551717	3.723700
721.575500	3.886400
729.768017	3.453400
729.841450	3.548900
730.544200	3.532400
733.540967	3.424600
733.927900	3.393200
734.433683	3.376200
729.714283	3.658500
738.000550	3.317300
732.978550	3.647300
744.720267	2.967700
741.112833	3.168300
741.983933	3.194400
742.634333	3.217500
731.556933	3.974700
742.262400	3.311600
740.072250	3.431600
734.636667	3.770500
736.813367	3.743200
746.143150	3.257900
748.834867	3.107500
743.164267	3.491500
738.445967	3.768100
745.678300	3.331100
742.810467	3.513100
735.856900	4.007900
739.052867	3.865600
748.304633	3.337200
748.133767	3.356800
755.994583	3.009000
746.553250	3.599300
764.276233	2.588700
751.865283	3.321300
755.531850	3.093500
752.478350	3.257300
749.325183	3.564300
751.776983	3.461400
758.394600	3.128000
762.559050	2.862800
762.605167	2.838100
762.330833	2.861400
748.770150	3.727100
755.299100	3.351200
751.383350	3.593600
756.189600	3.308300
759.721983	3.140700
755.391933	3.441900
753.309550	3.580400
758.454717	3.348400
762.255817	3.141100
762.870750	3.111200
758.698233	3.387300
763.311517	3.240400
759.912233	3.459900
759.008967	3.597100
756.098250	3.785000
761.715617	3.484300
759.073167	3.655600
767.500333	3.285000
768.494383	3.226200
749.794267	4.407400
757.970433	3.948900
769.292383	3.275400
768.235517	3.334000
761.063200	3.917000
766.479717	3.614500
768.991050	3.481700
767.668867	3.566800
773.464033	3.312900
767.732983	3.705300
766.157083	3.833100
771.640800	3.510800
773.921383	3.387300
767.884100	3.776000
776.756733	3.296700
772.531917	3.651400
773.905950	3.572300
774.300550	3.563000
772.283167	3.723700
782.479333	3.210900
780.479617	3.353500
776.526383	3.621000
781.317067	3.335500
784.643433	3.151200
784.836350	3.149000
785.942483	3.205800
784.340033	3.319500
783.132150	3.452300
783.678400	3.421700
789.752733	3.059400
788.189333	3.153300
786.627250	3.301400
789.463817	3.155200
772.593500	4.189700
779.178050	3.805700
786.310700	3.374000
781.762450	3.644300
788.114300	3.422900
782.991550	3.746300
781.126417	3.860200
782.324617	3.805000
783.016367	3.849700
791.380250	3.433100
796.332500	3.154700
798.989333	2.985600
789.119250	3.572300
796.792733	3.115800
794.841900	3.312500
799.002600	3.180500
798.918300	3.190400
797.195467	3.281500
796.284017	3.336400
796.417850	3.386000
798.105233	3.303300
800.603033	3.203700
799.373767	3.253000
801.520900	3.135500
799.155967	3.290200
802.893667	3.187300
800.619050	3.337100
804.330550	3.185000
799.404733	3.486600
803.119183	3.313800
799.979000	3.500600
801.397600	3.530600
808.549217	3.144100
803.297850	3.500600
813.023033	2.918700
809.469433	3.149700
804.123917	3.479800
803.251133	3.657000
805.291600	3.580700
806.041067	3.550900
806.159017	3.544600
805.671733	3.661500
805.166117	3.785200
805.308933	3.781800
804.349200	3.860000
802.743483	3.975600
809.773183	3.684900
809.162117	3.766300
812.161017	3.646900
812.523117	3.643900
810.048950	3.786800
813.245600	3.622400
819.191367	3.402400
812.954700	3.785900
813.148417	3.838300
822.952050	3.245600
820.204267	3.413500
820.659667	3.427900
824.367417	3.292000
820.662583	3.548700
822.710583	3.455400
822.582167	3.480400
825.772150	3.269900
821.999067	3.491500
821.285833	3.645300
824.964283	3.478200
814.584917	4.093600
822.825300	3.620000
824.440000	3.648800
837.440617	2.913400
829.708633	3.363900
825.028083	3.663300
831.749767	3.270400
834.612933	3.094200
828.984600	3.440600
831.645283	3.402300
837.706567	3.061300
837.976867	3.089200
838.617850	3.047000
832.432717	3.427000
838.412150	3.091400
846.584967	2.724100
830.052367	3.707200
833.976150	3.475100
838.225050	3.234800
840.488950	3.204800
835.798217	3.502600
835.024433	3.613500
831.733233	3.827100
830.709800	3.917000
835.237433	3.639600
842.064550	3.304400
842.789700	3.314900
846.807267	3.160000
844.415217	3.279700
845.327683	3.248100
848.705967	3.064000
847.609717	3.185200
843.838283	3.476400
839.884350	3.736400
843.769317	3.495400
843.368183	3.553800
841.807867	3.766900
844.582000	3.624200
850.155717	3.370900
846.579650	3.578000
849.272900	3.438800
848.889317	3.454600
853.539917	3.284800
853.998533	3.278700
842.413200	4.039400
845.268750	3.871100
852.239467	3.434500
849.791400	3.569300
847.520417	3.848800
849.089317	3.778000
854.131283	3.518400
854.924033	3.465300
861.537733	3.064200
848.219533	3.914700
849.346867	3.858400
856.450733	3.477300
854.924583	3.567300
852.639217	3.724900
856.123933	3.537900
859.417933	3.472500
859.830400	3.461600
863.872950	3.263300
864.836283	3.225900
869.982133	2.910000
854.336967	3.826900
864.196500	3.310100
862.971117	3.414100
864.795783	3.355800
867.258000	3.227000
864.352800	3.426800
864.492317	3.434500
879.989100	2.637200
867.424583	3.387300
885.340500	2.354000
868.836700	3.330500
863.118700	3.712400
868.722933	3.417000
864.340983	3.740400
865.525117	3.732400
865.056417	3.781900
864.102350	3.842300
863.738417	3.908800
869.737933	3.595800
865.397967	3.910300
876.232683	3.366300
878.823317	3.231400
877.400033	3.320400
865.961800	3.997400
868.880200	3.984200
871.786850	3.814700
875.247500	3.632300
868.304800	4.039700
872.992750	3.844700
870.130317	4.025500
887.045933	3.051600
881.075450	3.411500
872.200050	3.957200
883.308367	3.294700
874.358683	3.883800
880.189167	3.567400
869.415700	4.252700
881.242167	3.555100
881.669683	3.558600
873.236083	4.067400
881.155583	3.681900
883.659767	3.621400
880.010000	3.875000
881.762117	3.766900
886.778267	3.550600
893.188267	3.227800
888.425733	3.539400
894.639250	3.213800
890.256567	3.462700
892.760000	3.326000
894.174850	3.248600
892.417400	3.472100
891.784717	3.515800
886.344067	3.867700
890.663200	3.621800
887.858067	3.919600
887.282500	3.983600
896.965100	3.456200
896.682183	3.516900
883.491933	4.301400
894.035500	3.694100
899.058817	3.508900
885.122650	4.391000
897.211800	3.743900
894.193283	3.936900
896.426150	3.806900
894.769433	3.925500
890.947767	4.276000
889.201250	4.449500
903.111917	3.667000
900.150567	3.879700
900.545533	3.867000
904.648167	3.605800
905.656350	3.573500
902.163117	3.820000
904.921317	3.664900
903.717967	3.745900
904.700533	3.699000
901.164950	3.969500
899.346017	4.122400
891.599167	4.622500
901.724900	4.034600
906.201817	3.788500
910.503117	3.561100
904.273583	4.054500
912.865050	3.573500
914.828967	3.534100
908.592683	3.913200
900.572783	4.378200
911.501633	3.755700
907.738233	4.167000
912.464717	3.878200
914.143500	3.806900
907.818167	4.153000
914.744183	3.833700
909.356033	4.228200
914.115600	3.935900
916.176383	3.871800
917.331850	3.806900
915.487100	3.923600
911.387617	4.193200
922.103817	3.710500
923.394183	3.636600
926.487717	3.496900
918.499983	3.950700
920.381167	3.863200
924.913767	3.602800
918.095700	4.157000
926.085067	3.681700
920.938783	4.010100
926.144517	3.698200
932.998983	3.360000
923.071983	3.949500
918.618933	4.298400
916.075600	4.450700
921.620467	4.145200
930.482700	3.622400
931.222317	3.686200
936.923200	3.390800
929.601700	3.885500
924.898117	4.151800
917.436833	4.646100
918.115950	4.581800
927.804633	4.047300
920.042700	4.633100
925.808883	4.321800
936.724750	3.689900
940.712633	3.461400
928.592883	4.197600
939.947183	3.537900
933.178250	4.121600
932.238600	4.178600
938.348150	3.845000
934.565667	4.065100
931.993750	4.358900
941.899333	3.816000
931.075150	4.517600
941.154450	3.926000
941.136950	3.948500
940.964633	3.957600
947.513983	3.615000
946.369650	3.705500
929.761500	4.719500
936.498267	4.316200
944.103017	3.859300
944.129317	3.869800
944.098050	3.948500
944.700300	3.968900
946.263450	3.897500
938.575817	4.358200
942.229683	4.191000
941.182033	4.364100
943.718300	4.237700
940.914417	4.408300
945.097017	4.179700
947.933600	4.050500
957.578917	3.469600
952.338067	3.926200
946.692900	4.287800
958.173283	3.663000
960.210567	3.564100
951.346700	4.111700
947.754417	4.345300
961.827617	3.646000
952.696400	4.214900
952.381950	4.242200
957.795850	3.927800
953.515633	4.299000
949.886117	4.568800
959.535467	4.036600
957.747283	4.166400
956.575650	4.242200
960.569883	4.018500
965.844717	3.725800
961.702750	4.064600
962.225867	4.060600
966.904300	3.773000
967.532783	3.731700
959.791117	4.313500
968.699083	3.809100
967.222667	3.947500
961.925967	4.272400
964.313117	4.163500
956.324117	4.644700
961.394450	4.361600
966.621950	4.052600
967.753400	4.063100
972.264867	3.804400
959.398133	4.607100
959.432200	4.613900
976.129283	3.727800
974.099150	3.896000
975.631933	3.822600
973.573317	3.959200
978.728400	3.654800
976.561300	3.797000
963.102917	4.744000
974.255517	4.082200
972.873883	4.166100
972.563217	4.198300
976.042267	4.035700
969.237233	4.566300
977.824567	4.072600
976.038167	4.195000
979.573567	4.012600
981.850917	3.994900
982.763700	3.960500
973.905600	4.535300
978.204267	4.274500
986.539267	3.846700
978.965967	4.305100
976.860950	4.433600
983.484233	4.029600
986.958550	4.018400
978.969317	4.495000
977.282483	4.591500
982.517533	4.310400
973.456117	4.966300
986.227217	4.255300
981.880817	4.545400
987.799500	4.246100
992.609750	3.917000
987.884017	4.203100
988.974450	4.211600
992.357100	4.080800
993.466600	4.069100
996.319117	3.898000
987.777400	4.402700
996.195483	3.900000
999.281117	3.753100
999.428917	3.842800
990.759300	4.364900
985.431433	4.679400
990.199583	4.395000
990.486233	4.442700
1000.674683	3.851700
998.174333	4.010100
1001.411683	3.813000
1000.100367	3.913900
989.684883	4.542900
996.869433	4.245000
989.387117	4.732600
994.379467	4.509700
1001.777533	4.065600
1000.675667	4.132000
999.098850	4.243700
1000.711167	4.326100
1001.369750	4.313900
1006.042267	4.063900
1008.081117	3.934600
1002.026533	4.389900
1002.343833	4.443300
1006.683067	4.208500
1003.801550	4.404800
1005.174450	4.339400
995.831183	4.912200
996.497333	4.927200
1004.285517	4.605400
1015.902800	3.941600
1019.160183	3.739200
1015.681883	3.968100
1013.445050	4.100600
1012.667833	4.157100
1010.959283	4.400100
1009.100067	4.528900
1011.949200	4.425800
1016.946583	4.123500
1024.725700	3.664100
1011.577100	4.451600
1016.313483	4.320900
1019.648850	4.119800
1016.065683	4.338900
1017.211233	4.276800
1011.348767	4.705900
1017.044817	4.447900
1012.482117	4.754800
1017.347467	4.495000
1020.813683	4.289400
1016.142783	4.558200
1023.026017	4.171000
1022.500600	4.264100
1024.456617	4.171600
1027.933833	3.978000
1026.374400	4.077800
1020.304650	4.429700
1018.549800	4.573400
1017.874200	4.737200
1019.672817	4.658800
1022.993317	4.488700
1026.059150	4.334900
1030.956733	4.061100
1031.846850	4.030400
1025.023900	4.586600
1031.871117	4.183600
1023.143800	4.697300
1028.675650	4.391300
1030.655817	4.417900
1035.280333	4.179300
1037.227750	4.108400
1030.912117	4.500400
1037.597533	4.119600
1027.228733	4.742700
1030.521683	4.714200
1031.598283	4.665600
1036.881367	4.389100
1037.202283	4.375800
1032.851000	4.717400
1038.519117	4.467700
1037.844050	4.546400
1035.803183	4.709700
1042.024417	4.347100
1038.195017	4.573300
1028.211733	5.194200
1045.726333	4.283400
1046.164433	4.254000
1047.627717	4.160500
1042.585117	4.458400
1046.493883	4.367100
1043.045383	4.572600
1051.056450	4.160900
1048.663717	4.299100
1050.860117	4.185700
1049.143833	4.283400
1045.157317	4.609300
1045.740017	4.588900
1043.049850	4.779800
1044.363900	4.707800
1043.435200	4.768400
1042.041433	4.857000
1048.325867	4.517800
1045.914217	4.706200
1061.029833	3.834000
1047.712050	4.643000
1051.496967	4.424500
1047.512767	4.655800
1052.975417	4.374100
1053.507633	4.411800
1064.112933	3.813300
1061.763400	3.948500
1061.759400	4.007000
1058.839617	4.276900
1065.210950	3.905000
1058.946933	4.337700
1051.085917	4.816900
1060.430083	4.276800
1063.605950	4.105400
1056.601750	4.665800
1057.486583	4.629900
1056.522400	4.712000
1057.545367	4.643800
1054.014083	4.887900
1059.440183	4.596000
1065.325750	4.292000
1063.363283	4.451400
1068.128283	4.168800
1064.436817	4.412200
1061.198500	4.740500
1060.580683	4.816500
1064.303700	4.658300
1061.465133	4.828500
1060.561983	4.939800
1068.512150	4.457900
1070.368067	4.396000
1068.770900	4.590500
1073.232550	4.352300
1071.608733	4.485000
1074.389983	4.325400
1064.600517	4.884700
1067.039250	4.784000
1073.334133	4.533300
1075.880550	4.394300
1070.249183	4.749900
1073.772383	4.563900
1076.873083	4.364100
1068.990167	4.852600
1070.448083	4.837500
1061.400817	5.411800
1071.238267	4.855900
1068.841450	5.037500
1069.210817	5.137000
1068.838950	5.274200
1080.888550	4.617200
1076.253917	4.917100
1072.889767	5.134900
1077.977433	4.844100
1076.843367	4.985800
1074.487933	5.226300
1079.559517	4.949500
1087.509983	4.486500
1090.755250	4.350800
1087.598750	4.633100
1092.856950	4.316000
1092.889317	4.316800
1093.610917	4.259500
1087.220717	4.647700
1091.666233	4.399500
1098.373233	4.049400
1093.767967	4.322200
1079.788467	5.249200
1090.526817	4.636300
1086.317917	4.906000
1093.529383	4.480800
1100.297017	4.199800
1096.287967	4.478200
1096.840767	4.513900
1092.207267	4.790500
1100.987400	4.280300
1101.503267	4.236400
1100.463600	4.436300
1099.444667	4.495900
1095.181367	4.732600
1098.179633	4.570500
1104.298150	4.261100
1104.769950	4.332500
1102.057500	4.529300
1103.795033	4.458600
1108.195217	4.199500
1098.808700	4.751000
1102.420683	4.564800
1104.010033	4.614600
1103.833617	4.628800
1109.110933	4.356900
1107.318000	4.493600
1111.805217	4.228300
1105.569383	4.599300
1110.077267	4.337200
1104.747233	4.646100
1093.348983	5.417100
1100.852433	4.998900
1105.736250	4.902500
1110.799167	4.605700
1109.767000	4.737500
1106.903633	4.926300
1105.916267	4.997500
1112.225400	4.611800
1105.842017	5.151700
1111.871667	4.800100
1102.494833	5.385600
1107.120000	5.111600
1117.364333	4.604100
1113.335967	4.888600
1116.039867	4.755700
1122.062650	4.427000
1112.949467	4.969900
1108.773550	5.232800
1113.791467	4.975600
1115.541267	4.997800
1118.252900	4.865600
1123.344267	4.613800
1122.715383	4.640400
1122.675750	4.657400
1123.730617	4.592800
1116.285633	5.181000
1127.036250	4.552400
1129.915300	4.428800
1125.891300	4.676900
1128.088867	4.548700
1124.883267	4.729300
1119.922317	5.120200
1122.622750	4.963400
1120.170017	5.130100
1119.685833	5.176500
1127.402733	4.798200
1115.850283	5.482200
1129.724050	4.668500
1121.473233	5.178600
1124.036300	5.084000
1120.766067	5.314600
1127.407100	4.958300
1130.612533	4.808700
1135.155083	4.557600
1134.735367	4.611100
1135.338683	4.592100
1136.460550	4.525100
1134.951450	4.628600
1127.820400	5.216300
1136.018400	4.748300
1132.303717	4.984600
1131.928950	5.028500
1136.901017	4.877500
1136.595783	4.939800
1140.125817	4.786600
1135.599050	5.086100
1140.100267	4.822600
1141.112683	4.773900
1142.593883	4.755000
1142.207683	4.815600
1134.647117	5.280700
1142.815000	4.801400
1146.158800	4.607600
1146.717783	4.586400
1141.368100	4.943300
1145.744183	4.734300
1142.286917	4.955500
1143.794733	4.890600
1140.850300	5.153300
1144.538700	5.070200
1139.035050	5.431100
1146.548833	5.094000
1146.571867	5.093200
1153.404250	4.693700
1150.696717	4.868800
1149.989717	5.084200
1153.285450	4.910900
1152.222250	5.030000
1155.036367	4.860400
1150.388517	5.170600
1156.514867	4.820200
1152.927117	5.157100
1159.069850	4.808300
1156.271100	5.055200
1154.972133	5.145300
1147.052633	5.639100
1163.504933	4.657800
1154.996933	5.264100
1162.749617	4.854100
1163.618967	4.782400
1163.421783	4.823100
1158.866950	5.109500
1153.604850	5.522000
1160.956633	5.108400
1169.218950	4.674500
1165.993817	4.863100
1163.384300	5.021300
1163.942100	5.005100
1166.032200	5.001500
1176.872183	4.382100
1172.386817	4.680700
1165.103483	5.127900
1176.711800	4.443500
1170.881700	4.783700
1166.790833	5.091900
1166.535267	5.139100
1168.979367	5.006200
1172.613400	4.796900
1170.496533	4.959000
1169.977167	5.048500
1167.720100	5.285900
1170.329300	5.126300
1180.362433	4.572600
1181.728183	4.483800
1174.763283	4.969500
1180.056183	4.736100
1174.311683	5.100900
1171.369333	5.313900
1177.976183	4.943100
1178.339133	4.918800
1179.193267	4.885900
1184.593067	4.629400
1178.578050	4.989800
1183.082317	4.755700
1182.053033	4.838100
1187.299000	4.568300
1188.864950	4.498400
1182.323883	4.925400
1175.454050	5.353100
1174.148000	5.462900
1181.043567	5.056000
1186.462150	4.796900
1186.220033	4.849200
1177.363517	5.447800
1182.958617	5.122000
1181.200983	5.269200
1184.679450	5.065100
1196.257333	4.523700
1189.369950	4.978700
1196.799150	4.577900
1189.856067	4.966000
1194.239800	4.788500
1191.914767	5.015200
1187.618517	5.321200
1189.837267	5.244700
1185.522050	5.505500
1195.697917	4.928500
1183.505900	5.689100
1188.292967	5.542600
1196.591450	5.061500
1196.514800	5.152700
1197.803583	5.063400
1200.443950	4.909400
1202.764750	4.779800
1200.745600	5.021600
1194.613267	5.400700
1204.279283	4.902000
1202.962983	4.982400
1200.603767	5.147500
1203.703117	4.955800
1204.535617	5.076100
1203.889900	5.117600
1199.506500	5.380400
1203.623733	5.134800
1205.911750	5.109200
1210.383567	4.889800
1210.789933	4.876800
1203.655217	5.325100
1202.585433	5.400600
1198.424600	5.667800
1202.375633	5.507700
1204.324817	5.418400
1213.037317	4.933000
1205.258700	5.463500
1205.096567	5.485900
1206.413333	5.410500
1209.104867	5.269300
1211.002567	5.311600
1210.190667	5.362000
1200.125700	5.999300
1201.779000	5.932100
1217.477300	5.165000
1211.191783	5.579700
1221.429617	5.008000
1213.739633	5.467800
1219.050100	5.184500
1217.456650	5.295800
1224.284717	4.959700
1221.220883	5.220900
1228.550417	4.824400
1227.259900	4.901300
1223.023700	5.150900
1221.707850	5.232200
1215.596717	5.656000
1231.145833	4.821300
1223.702767	5.267800
1226.250867	5.103700
1228.702350	5.047700
1224.950067	5.345200
1229.811167	5.076100
1224.183267	5.439100
1231.059883	5.009700
1223.661000	5.469500
1222.958133	5.568300
1234.119817	5.001400
1224.401883	5.605500
1228.326517	5.442100
1235.445400	5.005700
1238.465567	4.834300
1236.486267	4.959100
1238.462883	4.980600
1241.188417	4.799200
1236.070817	5.133100
1238.024800	5.029700
1235.600617	5.301700
1234.020733	5.434800
1229.983167	5.751700
1232.168167	5.638300
1232.966933	5.613600
1235.185933	5.484000
1238.330150	5.471300
1237.998417	5.509300
1227.508583	6.167100
1235.303367	5.715400
1238.391917	5.635900
1242.527450	5.466200
1234.595683	5.977500
1243.552833	5.510700
1243.923783	5.478000
1242.504283	5.579700
1238.799250	5.814500
1249.763050	5.306300
1255.071800	5.013200
1249.286783	5.407200
1251.662667	5.273500
1258.634050	4.840100
1246.049317	5.588800
1253.220750	5.228900
1256.521283	5.046300
1256.036917	5.103100
1255.757300	5.085800
1256.723000	5.048600
1249.528600	5.492000
1249.307950	5.663600
1249.577933	5.650500
1254.077167	5.390800
1256.532750	5.262200
1260.176050	5.173400
1254.613833	5.527200
1271.779200	4.546400
1266.547067	4.860400
1261.554067	5.149600
1256.790833	5.445900
1257.014783	5.487000
1262.402183	5.262900
1266.978700	5.029700
1272.681250	4.731500
1265.714900	5.141300
1255.893500	5.729000
1251.633183	5.998500
1262.760767	5.512900
1270.640083	5.064300
1261.613350	5.611100
1264.270717	5.464300
1270.817900	5.197700
1259.780317	5.888800
1268.234383	5.396100
1266.797433	5.529600
1267.964317	5.458300
1265.993433	5.579700
1272.700783	5.284500
1266.510183	5.669100
1271.018850	5.501000
1270.319783	5.538300
1271.782333	5.474100
1270.430217	5.572900
1273.263217	5.584900
1279.401183	5.180400
1281.957333	5.039400
1272.719400	5.603900
1278.283450	5.372300
1278.777283	5.400000
1280.636500	5.322200
1278.307867	5.513200
1276.206000	5.638400
1274.116467	5.762200
1278.715883	5.603100
1285.810383	5.269800
1273.450350	6.001700
1277.331167	5.800000
1276.535967	5.877400
1278.256667	5.835100
1279.870833	5.750100
1279.717417	5.829100
1288.131850	5.341400
1281.755650	5.744900
1274.494983	6.173100
1294.387117	5.118700
1295.310750	5.080100
1282.104550	5.927600
1294.051333	5.210400
1284.134700	5.826200
1291.432933	5.396400
1295.865250	5.267600
1292.583300	5.497700
1302.846883	4.939800
1290.542367	5.716000
1291.257650	5.684600
1288.743550	5.834900
1290.699833	5.781600
1286.361833	6.155100
1302.580200	5.207300
1292.255600	5.827700
1301.737917	5.289700
1304.316000	5.242700
1301.685217	5.411800
1298.975783	5.590200
1303.569767	5.316700
1306.263300	5.161100
1297.086650	5.700800
1298.650700	5.738300
1304.055033	5.449200
1299.827367	5.764300
1300.469117	5.736400
1300.069017	5.791300
1310.360350	5.190200
1308.322767	5.464300
1298.927483	6.036000
1301.342150	5.916800
1309.746050	5.414000
1312.394300	5.375900
1308.068067	5.687200
1307.156233	5.756400
1309.232250	5.660300
1309.491467	5.640400
1310.654167	5.582500
1312.063750	5.504300
1314.453783	5.417400
1312.456367	5.566000
1309.637800	5.773700
1310.067067	5.766400
1314.263300	5.515400
1306.730467	5.990500
1322.516000	5.205500
1321.441883	5.271600
1316.482983	5.553900
1323.122250	5.173400
1317.519300	5.640800
1317.702783	5.632800
1306.708117	6.385300
1320.855450	5.554400
1330.005917	5.037700
1321.120867	5.553400
1323.962550	5.504300
1330.325433	5.169900
1319.678917	5.859400
1324.351417	5.546500
1323.329033	5.626500
1319.537417	5.858200
1328.244800	5.471300
1330.240500	5.327900
1322.085633	5.841900
1329.663983	5.400000
1324.916867	5.755900
1327.893083	5.686200
1330.431550	5.562200
1330.564800	5.589500
1326.765750	5.835500
1330.870800	5.598800
1326.646017	5.898100
1336.410100	5.461700
1336.631950	5.447000
1339.460167	5.271100
1333.349733	5.648700
1336.779300	5.576000
1341.406083	5.355300
1337.369683	5.649300
1338.613683	5.576400
1336.036417	5.744500
1337.726317	5.659000
1337.292033	5.808000
1339.110483	5.746200
1336.117633	5.995800
1335.784917	6.031300
1342.480967	5.656600
1341.289717	5.734600
1342.143867	5.778100
1337.390233	6.123300
1341.865333	5.873400
1343.669450	5.816300
1347.702217	5.583700
1348.947967	5.521300
1347.532683	5.656800
1348.875183	5.688600
1353.336283	5.452500
1353.428433	5.456100
1355.846467	5.289100
1355.433800	5.469500
1348.547100	5.895800
1354.401183	5.554500
1344.901933	6.198600
1350.520717	5.948800
1353.557917	5.825800
1354.734267	5.782900
1350.015883	6.059700
1362.612583	5.415300
1359.131633	5.637000
1353.677717	5.999800
1355.725450	5.870900
1356.799800	5.921600
1360.947767	5.680000
1355.544867	6.030700
1355.914900	6.000500
1354.599383	6.215400
1354.709200	6.268700
1364.425667	5.749900
1368.295333	5.496300
1356.160633	6.219600
1369.003033	5.478000
1366.830517	5.664400
1362.316583	6.018300
1367.848567	5.728000
1367.524250	5.778200
1361.208150	6.173900
1370.270133	5.615700
1372.837400	5.499800
1366.924917	6.003100
1363.777633	6.192600
1369.953100	5.839100
1366.072750	6.074300
1372.791317	5.801500
1374.313667	5.743300
1376.343567	5.696800
1368.163067	6.182800
1379.831417	5.502700
1378.369333	5.580300
1372.423533	5.964300
1371.404050	6.047600
1370.930350	6.090200
1367.110233	6.330300
1364.298083	6.513300
1372.076400	6.054800
1372.443817	6.193300
1378.890950	5.827100
1383.950033	5.527200
1385.698733	5.429100
1373.995200	6.180200
1372.335967	6.391300
1374.021017	6.330100
1377.723933	6.167100
1369.962683	6.665400
1383.255233	5.885100
1381.961000	5.983100
1378.049983	6.371700
1389.757617	5.687200
1389.497067	5.705500
1381.083317	6.224800
1385.469217	6.026800
1393.603683	5.542200
1385.717900	6.050600
1392.078300	5.660300
1387.299500	5.948300
1382.809467	6.242500
1387.859000	6.087200
1395.670150	5.653700
1396.059017	5.697700
1396.162733	5.710800
1394.980750	5.796500
1391.565400	5.986700
1387.923967	6.301600
1390.038833	6.258000
1399.482067	5.789500
1399.476200	5.753300
1398.053883	5.827200
1390.415783	6.298200
1397.571200	5.941100
1397.508167	6.040600
1395.985800	6.148100
1399.017050	5.993000
1392.029483	6.441300
1397.197967	6.180100
1404.088883	5.793000
1412.364067	5.326900
1403.885617	5.838400
1404.825650	5.786600
1394.216917	6.446800
1403.951200	5.918000
1407.964767	5.703700
1406.973617	5.827900
1408.127550	5.772200
1405.910283	5.913600
1402.960183	6.112800
1400.352200	6.405200
1411.189533	5.810400
1418.841750	5.460800
1411.925133	5.841300
1411.792867	5.872600
1419.295450	5.435600
1413.404900	5.856200
1421.461667	5.474800
1413.807367	5.938300
1414.081833	5.944200
1406.879900	6.413600
1408.310683	6.385500
1415.567167	5.950900
1416.233167	5.959900
1414.311250	6.089900
1416.196850	6.008000
1410.749217	6.345400
1419.188917	5.983000
1423.545917	5.755600
1425.075233	5.689800
1423.440450	5.787200
1420.761317	6.062200
1410.161050	6.740600
1414.449883	6.573600
1418.989133	6.290700
1420.082500	6.231800
1418.745067	6.333700
1422.937833	6.174600
1420.743433	6.330600
1417.362250	6.618200
1421.688283	6.402900
1424.684683	6.258000
1422.195300	6.409700
1423.334633	6.380100
1425.630500	6.336800
1430.217283	6.081900
1431.409783	6.018300
1429.677200	6.178400
1424.004233	6.653100
1433.716433	6.126900
1428.148833	6.513300
1434.109917	6.181600
1431.549567	6.343000
1445.618450	5.512400
1429.809017	6.620800
1438.996617	6.050800
1440.099017	6.017800
1434.567517	6.342400
1441.895133	6.067500
1437.335450	6.356600
1433.797167	6.599800
1437.929783	6.357300
1436.267933	6.551700
1435.757867	6.602200
1430.212217	6.953200
1435.775633	6.632400
1439.015817	6.579700
1442.113350	6.406400
1446.262317	6.188800
1440.666000	6.544100
1446.484917	6.228400
1445.821550	6.369200
1452.303150	6.016100
1446.798350	6.402800
1438.533200	6.906200
1444.405150	6.584300
1445.088517	6.558100
1443.270150	6.792800
1446.170633	6.660900
1447.668833	6.614700
1443.764900	6.880400
1435.486333	7.392300
1447.112800	6.721700
1455.110450	6.291200
1451.787667	6.511300
1456.110100	6.251000
1453.051967	6.437200
1460.212483	6.108900
1458.516967	6.276700
1466.943250	5.813900
1455.393683	6.504000
1456.901250	6.418100
1461.118900	6.194900
1458.873350	6.407600
1461.998233	6.286800
1462.618700	6.261500
1465.503917	6.087100
1459.926217	6.482500
1464.975633	6.287700
1470.364733	5.998500
1463.979317	6.419500
1473.366800	5.863700
1469.911667	6.093700
1473.284083	5.896800
1465.972617	6.332800
1473.260817	5.898700
1473.266117	6.078700
1471.952000	6.142400
1461.228683	6.801000
1467.274900	6.460100
1474.964100	6.096500
1476.059033	6.101700
1464.685417	6.822700
1470.161200	6.521000
1475.820750	6.173600
1471.128317	6.468700
1470.633400	6.581000
1477.026200	6.291800
1486.333500	5.763200
1486.553067	5.722300
1480.811383	6.108000
1479.493217	6.299800
1473.033800	6.698900
1477.298450	6.485600
1473.775550	6.706100
1472.051350	6.836000
1473.991250	6.720500
1486.759650	6.098000
1481.644733	6.450300
1481.858717	6.478300
1478.542350	6.667100
1476.879333	6.773700
1478.881367	6.668200
1491.627967	6.090700
1482.900233	6.624300
1489.266250	6.232700
1480.797467	6.758500
1482.593400	6.694400
1484.393683	6.618900
1481.469050	6.863900
1493.091733	6.164100
1481.142550	6.862100
1484.908400	6.656600
1486.545300	6.645200
1495.830500	6.175100
1494.837283	6.287700
1495.211550	6.251600
1494.886417	6.242500
1498.535833	6.028500
1498.186683	6.177600
1491.357183	6.587400
1489.103567	6.748600
1498.126567	6.226600
1499.099033	6.186300
1498.034783	6.393000
1500.423600	6.278000
1493.542783	6.731700
1498.493500	6.460100
1495.671350	6.628700
1497.680100	6.507200
1496.589417	6.744100
1496.571333	6.775500
1508.094633	6.146100
1501.020850	6.558500
1501.427917	6.546100
1502.818133	6.480000
1497.598250	6.951200
1500.048217	6.820000
1496.746717	7.027300
1498.190033	6.957600
1504.675717	6.670600
1503.770517	6.783400
1514.922383	6.167100
1512.250067	6.327100
1512.674350	6.303500
1514.886867	6.175000
1511.106600	6.452000
1505.654683	6.818100
1507.455183	6.765000
1505.156433	6.927300
1511.183100	6.581900
1508.260200	6.770000
1506.527500	6.922400
1501.011133	7.383900
1516.798533	6.492300
1508.524800	7.017800
1516.253550	6.563600
1528.377800	5.946800
1515.369900	6.752300
1514.820800	6.913100
1511.578467	7.118500
1516.641450	6.844100
1517.921300	6.787400
1515.825533	7.047000
1525.593450	6.502100
1513.607750	7.247600
1522.435400	6.717500
1527.766117	6.418900
1523.240983	6.676500
1527.381050	6.549500
1529.871650	6.471800
1521.801517	6.974800
1530.145317	6.504100
1532.861017	6.362500
1527.885950	6.664100
1527.403900	6.738800
1532.416967	6.567100
1539.210383	6.178500
1538.522167	6.218800
1534.160250	6.527000
1530.426417	6.850300
1533.995283	6.657300
1535.862283	6.598200
1535.632150	6.646400
1532.292533	6.828000
1534.770733	6.701100
1537.710967	6.667900
1533.640000	6.942500
1537.817350	6.768500
1533.621383	7.018200
1537.768117	6.799000
1535.914800	6.898400
1542.982167	6.621700
1535.465717	7.089100
1539.868417	6.854200
1545.482300	6.529700
1548.082600	6.401000
1544.458383	6.641400
1536.427983	7.153200
1540.300567	6.962500
1548.994567	6.437200
1541.673617	6.885700
1553.503833	6.217500
1556.309067	6.150100
1554.299033	6.287700
1542.152817	7.024900
1549.210950	6.626900
1549.844833	6.721800
1546.573600	6.932900
1545.508550	7.075100
1544.738033	7.132800
1552.276550	6.686900
1545.348300	7.112000
1548.146650	7.003700
1550.742483	6.898800
1546.423200	7.199600
1546.966683	7.194300
1549.174533	7.096500
1558.277800	6.566300
1560.546067	6.547600
1562.962333	6.422700
1556.615267	6.894400
1554.521667	7.039000
1552.039567	7.216900
1565.463833	6.420000
1570.219933	6.268500
1565.059300	6.586700
1566.886300	6.487100
1568.052550	6.424100
1565.030100	6.702800
1566.804683	6.647700
1564.115317	6.805600
1563.609817	6.846700
1571.041083	6.460800
1569.977550	6.637700
1565.160933	6.921600
1573.153033	6.482400
1569.205167	6.714700
1563.935017	7.091200
1565.172967	7.037800
1574.264183	6.503400
1559.093700	7.428200
1570.229917	6.835000
1575.069433	6.574800
1565.401950	7.186100
1566.555033	7.107300
1578.185183	6.514200
1575.332350	6.776600
1568.360617	7.271200
1568.954200	7.248200
1581.190050	6.557900
1586.457633	6.243000
1581.854533	6.600900
1576.854650	6.958100
1574.746067	7.128400
1583.057383	6.663600
1576.196933	7.079700
1581.060383	6.795300
1583.173350	6.743300
1581.777133	6.914700
1583.754767	6.806200
1583.307567	6.847600
1581.054967	7.068400
1579.612600	7.254800
1579.535550	7.281800
1584.924500	6.992300
1588.399250	6.792500
1588.944850	6.773600
1585.201933	7.004700
1587.382850	6.944600
1583.469767	7.189900
1589.624817	6.908800
1576.654700	7.687400
1589.440200	6.974300
1589.862233	6.948000
1588.993883	7.171500
1591.462883	7.035000
1595.359683	6.798300
1582.093000	7.626500
1579.864000	7.849700
1590.539767	7.234600
1589.397133	7.366500
1592.585650	7.202900
1597.333367	6.938800
1594.452883	7.132200
1603.416167	6.723100
1600.867733	6.921000
1600.040933	6.978600
1593.820833	7.360200
1595.822933	7.246800
1601.525217	6.985900
1603.382867	6.897700
1591.287617	7.675900
1606.039300	6.808700
1614.524283	6.338100
1604.157517	6.961900
1602.772733	7.119600
1606.160533	6.924000
1603.423883	7.153800
1593.023083	7.812600
1598.293000	7.542800
1586.643083	8.267100
1607.556633	7.133400
1608.546700	7.097600
1618.212583	6.623400
1605.802950	7.399100
1597.103817	7.939900
1605.393800	7.456700
1603.425233	7.793100
1607.159567	7.557700
1605.113750	7.707800
1606.640633	7.623300
1615.555083	7.138200
1615.539900	7.197800
1622.694633	6.775500
1620.881367	6.851800
1613.306667	7.310500
1613.801000	7.357700
1611.953733	7.498500
1617.737183	7.215600
1623.575150	6.887900
1618.195617	7.289500
1620.220833	7.161000
1616.016883	7.425300
1608.014533	7.932900
1623.201950	7.195100
1623.595717	7.202800
1627.459267	6.976600
1634.339367	6.571300
1629.733333	6.938100
1627.681717	7.131700
1622.992217	7.448800
1626.203867	7.295800
1630.157983	7.071900
1631.454117	6.972700
1628.075467	7.209400
1626.797150	7.398500
1621.289167	7.753900
1627.655967	7.417900
1636.253083	6.932100
1629.116817	7.369300
1637.183517	6.885700
1628.823333	7.397400
1636.023917	7.027300
1631.689700	7.460600
1634.446767	7.292200
1631.942050	7.510400
1636.960700	7.224200
1641.041067	7.038700
1641.388383	7.029900
1636.438167	7.310500
1644.004850	6.869900
1646.440133	6.850200
1640.519733	7.212600
1640.213417	7.279000
1646.489117	6.895600
1644.367983	7.015500
1637.630300	7.449500
1638.237883	7.472100
1642.722633	7.214100
1651.457367	6.727300
1642.686833	7.260900
1640.903400	7.434500
1633.979417	7.867000
1637.987833	7.660200
1640.979750	7.541900
1644.657917	7.338100
1638.598617	7.710400
1639.758783	7.689900
1642.497617	7.684900
1649.016700	7.325000
1653.656817	7.129000
1652.551417	7.204300
1654.391000	7.102700
1659.183950	6.833600
1650.173667	7.514200
1656.274483	7.154700
1655.641600	7.197200
1646.447383	7.772100
1651.866000	7.519100
1658.446900	7.156400
1657.782450	7.256000
1654.294583	7.475700
1656.920217	7.358500
1666.482517	6.774100
1661.765333	7.171500
1659.963317	7.344100
1651.360017	7.901500
1660.098250	7.433300
1663.770067	7.219300
1659.341550	7.509800
1660.985833	7.484100
1662.166750	7.520300
1655.785983	7.922700
1661.766500	7.582700
1664.919233	7.484100
1669.804717	7.280200
1664.739867	7.622200
1672.493033	7.187400
1667.929467	7.470100
1666.996083	7.523100
1667.462650	7.529900
1674.154517	7.271200
1677.276033	7.092600
1670.442700	7.562300
1671.719183	7.507200
1670.753550	7.572800
1670.004333	7.643400
1662.827650	8.157200
1670.780050	7.686800
1679.561033	7.163700
1673.039800	7.527800
1669.002950	7.902200
1680.185217	7.277500
1676.872783	7.537800
1681.573417	7.274500
1677.210300	7.551800
1675.461317	7.677100
1680.593617	7.472500
1679.069517	7.658500
1680.427483	7.590900
1675.440350	7.932200
1680.302217	7.660000
1687.657750	7.247600
1680.327950	7.704800
1679.100433	7.881600
1691.149283	7.193700
1690.297717	7.269400
1688.430200	7.388300
1690.014700	7.303100
1685.084650	7.613900
1691.262267	7.403200
1693.587417	7.310500
1687.507000	7.686800
1692.614050	7.406900
1690.370067	7.662700
1695.626833	7.402500
1690.562533	7.761600
1697.268283	7.362300
1690.813867	7.756300
1690.059400	7.814600
1693.982333	7.676100
1697.142783	7.568700
1699.658700	7.439900
1701.142483	7.366200
1694.087133	7.814700
1697.557900	7.616000
1707.862083	7.163700
1696.130517	7.840900
1693.906583	8.006100
1702.353333	7.489500
1701.895833	7.553700
1700.570050	7.758500
1710.316117	7.200400
1707.674917	7.400200
1707.732550	7.417400
1699.941033	7.892700
1707.158567	7.454800
1700.308567	8.000500
1708.066500	7.579400
1716.054183	7.127700
1702.051133	7.951800
1708.362017	7.586200
1711.946200	7.375700
1712.591950	7.490900
1709.476783	7.711500
1715.316467	7.363000
1713.378117	7.473100
1714.050517	7.538200
1713.292633	7.644000
1703.625917	8.290900
1704.361450	8.308700
1723.435900	7.216100
1714.919433	7.701900
1716.179183	7.691400
1714.178667	7.851400
1718.845817	7.619200
1718.133317	7.686700
1715.160583	7.877700
1721.746117	7.508500
1724.381000	7.379900
1718.763833	7.872600
1720.912750	7.772900
1717.335800	7.987100
1716.801433	8.024700
1727.903600	7.507400
1719.909000	8.020100
1727.434017	7.639600
1725.265217	7.778800
1736.440833	7.138200
1740.146333	6.906300
1732.809217	7.462000
1732.628583	7.487700
1728.494117	7.819300
1730.787200	7.690400
1733.824067	7.522900
1731.938567	7.642300
1732.889617	7.617100
1734.197950	7.584500
1731.278650	7.771400
1730.235333	7.848300
1735.004533	7.618800
1736.544867	7.645600
1741.671850	7.362200
1735.262283	7.800900
1740.853300	7.493300
1731.420083	8.081100
1727.730567	8.298100
1733.603083	8.087400
1737.268650	7.893800
1737.652183	7.943400
1735.313700	8.078000
1728.615850	8.504600
1725.233917	8.706400
1743.659450	7.735400
1740.457783	7.968300
1752.171667	7.292200
1750.863067	7.375900
1740.407767	8.010400
1742.696333	7.860600
1744.434833	7.799400
1746.813483	7.719000
1748.985967	7.667200
1747.186050	7.735700
1741.149033	8.145900
1739.299767	8.372500
1750.337167	7.745500
1750.299683	7.800300
1749.798767	7.825300
1757.370433	7.394400
1750.562467	7.817500
1753.887900	7.765100
1750.597300	8.008100
1748.446000	8.191700
1750.889733	8.064000
1758.112900	7.659200
1751.486450	8.071400
1760.563533	7.679400
1751.417900	8.238500
1756.786967	7.932100
1751.713900	8.276300
1752.643683	8.361600
1754.829467	8.290300
1752.697117	8.461300
1752.163417	8.539600
1768.179667	7.646200
1754.861550	8.421800
1761.520350	8.128700
1758.075750	8.432900
1760.411550	8.326400
1761.893017	8.280100
1760.197133	8.392500
1762.461617	8.264500
1764.219817	8.207800
1763.247967	8.357800
1763.056683	8.391000
1768.768817	8.040100
1769.243650	8.030300
1766.698450	8.310200
1777.294767	7.718800
1780.748700	7.545200
1778.323767	7.671700
1770.868967	8.127400
1776.627167	7.752700
1771.022283	8.139900
1769.416783	8.280300
1768.045117	8.385700
1771.455950	8.202200
1777.984900	7.824500
1774.720033	8.034300
1781.345233	7.764900
1784.007767	7.647400
1775.535250	8.149700
1774.800317	8.200300
1783.884900	7.707200
1773.813183	8.376600
1778.641333	8.134500
1788.222000	7.667900
1793.336750	7.367600
1789.626800	7.581200
1775.484083	8.433900
1779.815733	8.335500
1783.592017	8.146000
1782.935883	8.236800
1783.311900	8.232200
1786.853533	8.027100
1787.065700	8.029100
1794.045417	7.794100
1795.535467	7.697800
1793.161800	7.868000
1796.440167	7.656700
1798.382550	7.664600
1789.966700	8.223800
1800.966817	7.667200
1796.441650	7.912400
1793.723867	8.084200
1792.056083	8.208300
1797.761917	7.976200
1806.166283	7.512900
1799.335517	8.002900
1792.014050	8.441600
1799.563183	8.032800
1803.540017	7.791700
1806.487350	7.664900
1800.053717	8.159500
1797.664900	8.325800
1799.709767	8.224000
1808.386700	7.720400
1807.207767	7.939900
1809.193867	7.835800
1811.417167	7.746400
1801.217233	8.376600
1816.547067	7.462600
1812.014317	7.692400
1806.622517	8.135200
1815.560000	7.638200
1810.297350	8.029100
1808.995983	8.120100
1818.454600	7.562300
1810.249917	8.045500
1806.687700	8.328800
1810.316967	8.219200
1818.121450	7.788500
1819.507617	7.737100
1822.737450	7.542800
1826.954433	7.275000
1819.419600	7.738400
1813.984950	8.108600
1816.470217	7.979500
1819.299883	7.833900
1817.554850	7.932200
1817.257333	8.117100
1826.418483	7.568400
1823.097583	7.836300
1819.731783	8.052900
1820.394933	8.032200
1824.773633	7.788900
1818.611983	8.284800
1827.780517	7.798300
1816.086317	8.548300
1819.847183	8.358900
1822.037683	8.265900
1821.093733	8.325600
1818.209783	8.574600
1830.604167	7.940500
1820.541883	8.550300
1820.747517	8.568700
1821.234017	8.600800
1820.757517	8.784700
1829.371467	8.311900
1829.540300	8.382200
1829.858533	8.389500
1835.730400	8.054300
1840.007783	7.779300
1842.904500	7.745900
1837.975667	8.066500
1837.215450	8.149700
1841.048067	7.950400
1831.673400	8.521100
1827.323250	8.800100
1829.451067	8.856700
1833.707850	8.605400
1831.040567	8.773900
1840.925817	8.165500
1844.871083	7.989900
1841.194450	8.234300
1844.739933	8.056200
1854.044200	7.534100
1849.095133	7.818900
1844.761067	8.091400
1844.636133	8.137500
1844.836183	8.250000
1850.731467	7.918900
1848.208517	8.103700
1846.525733	8.235300
1853.330467	7.847500
1841.654617	8.514400
1842.495300	8.675300
1848.082817	8.346400
1848.210950	8.362700
1851.445283	8.177700
1850.056483	8.399100
1850.120833	8.424000
1850.919000	8.453900
1851.826667	8.409100
1852.619633	8.380500
1850.040400	8.536400
1854.683017	8.448700
1847.436433	8.903700
1855.330083	8.502900
1856.791783	8.389800
1856.326817	8.468800
1855.633450	8.563400
1863.511050	8.181200
1851.622850	8.859800
1854.449200	8.719700
1854.214683	8.741100
1854.566500	8.789600
1850.721800	9.145700
1864.681483	8.339400
1863.518267	8.439400
1861.056850	8.602100
1867.164283	8.246400
1871.799483	8.013300
1867.285983	8.401500
1869.822017	8.286100
1866.996133	8.501100
1872.558350	8.187500
1864.828517	8.642200
1869.010600	8.399900
1865.190617	8.752900
1862.330883	8.921700
1869.222217	8.540500
1869.746033	8.487600
1877.701450	8.085200
1873.348800	8.367500
1883.293933	7.800900
1876.892033	8.196900
1872.235550	8.506400
1874.159700	8.390300
1875.314600	8.432900
1863.565083	9.206100
1877.494717	8.417200
1880.770767	8.248300
1876.480483	8.504100
1873.995350	8.684000
1874.397683	8.734200
1879.890367	8.534800
1886.757083	8.136600
1887.413383	8.124000
1887.793767	8.102500
1885.772100	8.212700
1888.959267	8.031100
1885.016983	8.412000
1884.031467	8.487100
1888.047633	8.258100
1887.137417	8.314600
1885.138217	8.582800
1891.731617	8.251600
1902.085850	7.651400
1897.548900	7.956500
1887.903467	8.542000
1890.948917	8.386300
1895.215217	8.254600
1894.489583	8.320800
1878.247917	9.329800
1888.214317	8.721400
1892.695350	8.519300
1901.554950	8.094500
1890.803400	8.747600
1894.506567	8.585800
1897.130433	8.444100
1897.362883	8.455500
1897.003333	8.501100
1891.196017	8.990200
1891.397283	9.021900
1892.500117	9.025600
1902.871400	8.400200
1906.227717	8.215000
1903.234250	8.415500
1897.082650	8.855600
1901.026033	8.644500
1904.827817	8.463100
1900.013967	8.764600
1902.733683	8.610000
1902.385217	8.656000
1904.910183	8.668200
1908.460133	8.475600
1907.217067	8.564800
1908.662267	8.495200
1905.987050	8.789600
1909.914933	8.605200
1911.595517	8.600800
1910.904150	8.628800
1907.925800	8.789600
1908.243600	8.800100
1907.816017	8.903500
1912.315167	8.729800
1909.930700	8.878100
1914.811617	8.632300
1917.455100	8.470400
1920.294283	8.280300
1918.625967	8.405800
1919.349433	8.492700
1914.286583	8.786100
1928.070050	8.000000
1923.511717	8.287000
1922.337083	8.451300
1927.750050	8.161400
1919.863900	8.669000
1913.490917	9.068200
1923.396283	8.513400
1920.068950	8.714300
1912.793350	9.296300
1920.845667	8.895700
1929.363950	8.432000
1930.522883	8.422500
1925.171117	8.728600
1930.562183	8.422500
1931.849267	8.412700
1931.463750	8.545700
1930.255400	8.609000
1927.455017	8.777800
1924.978483	9.020400
1928.062933	8.935800
1928.511900	8.944100
1930.462550	8.883200
1941.940567	8.205400
1930.610400	8.910200
1930.360783	8.951700
1924.097500	9.448400
1935.064183	8.866800
1933.157867	9.007300
1922.531767	9.671500
1939.833317	8.650600
1942.753500	8.479400
1938.628933	8.899800
1940.656100	8.809100
1938.129483	8.997300
1938.785883	8.980200
1947.007367	8.596600
1947.534000	8.620700
1942.382800	9.013400
1936.880817	9.340000
1943.914050	8.962700
1941.536817	9.112900
1955.649217	8.320000
1955.772700	8.337200
1958.694317	8.254600
1953.186450	8.508500
1954.401017	8.452600
1952.894067	8.539600
1949.994300	8.849900
1948.894500	8.973500
1956.038217	8.564500
1955.495883	8.588700
1954.423883	8.655000
1958.958383	8.500500
1961.842183	8.351400
1950.027750	9.110600
1951.494867	9.047500
1959.989750	8.516900
1965.331183	8.225400
1957.541833	8.815800
1957.560683	8.857800
1959.806867	8.774500
1957.813533	8.912700
1956.760933	8.980500
1963.431317	8.608000
1960.782867	8.776900
1959.751383	8.853900
1960.512767	8.913400
1964.759200	8.801300
1963.656800	8.884700
1962.562383	8.954700
1958.879417	9.250300
1973.076417	8.539300
1966.964167	8.908900
1970.276833	8.716200
1969.462383	8.802300
1969.279350	8.929100
1967.485950	9.078800
1969.470867	9.028000
1966.533167	9.197200
1969.128933	9.069000
1972.329467	8.864800
1974.243933	8.928300
1971.901467	9.078400
1969.844150	9.205700
1975.223283	8.914200
1983.677733	8.509200
1975.903267	9.028300
1974.427417	9.198700
1970.038350	9.468800
1984.965883	8.614800
1987.555917	8.449000
1976.323767	9.181900
1980.209650	9.056600
1986.999433	8.686500
1982.357717	8.958100
1981.171517	9.037900
1985.014250	8.804000
1979.830233	9.181500
1986.583200	8.896100
1992.576317	8.564800
1990.195917	8.715400
1985.788050	8.993000
1988.724150	8.952500
1988.083433	9.015900
1993.867533	8.733000
1995.529717	8.640100
1987.945950	9.114800
1989.507183	9.024300
1995.802500	8.840600
1988.405283	9.269700
1992.773217	8.990200
1992.076867	9.048100
1992.983600	9.078800
1991.438067	9.171400
1990.406133	9.269400
2002.039383	8.578500
2004.942250	8.443400
2006.121550	8.391500
1997.087150	8.941400
1987.727617	9.513400
2001.005983	8.776500
2008.624950	8.388500
1999.229750	8.948600
1994.349933	9.257700
1997.078317	9.176200
1996.078250	9.358700
2003.198600	8.971400
2009.837400	8.638400
2002.758567	9.073600
2008.155417	8.752900
2001.446917	9.195700
2015.803017	8.449600
2008.486683	8.916300
2009.375667	8.918500
2011.933017	8.746300
2008.246333	9.010500
2006.108400	9.174500
2007.928550	9.134300
2007.097350	9.182300
2001.357117	9.565900
2006.571317	9.283900
2011.871800	9.122000
2016.174017	8.903800
2007.336183	9.506400
2003.074400	9.790700
2024.085167	8.579800
2017.666450	8.961200
2010.556450	9.435200
2012.994433	9.422700
2028.277683	8.559600
2026.015450	8.711300
2022.020350	8.969900
2026.349700	8.736500
2026.183250	8.780600
2019.713667	9.277000
2018.091533	9.388200
2018.631583	9.376200
2021.584333	9.204000
2021.339383	9.262200
2020.592133	9.325500
2032.167767	8.742400
2024.283967	9.226000
2026.616383	9.102600
2026.895117	9.103600
2039.211500	8.557100
2029.491550	9.156800
2023.686517	9.555400
2027.901767	9.327100
2032.811400	9.117200
2040.722167	8.642200
2037.758267	8.864800
2029.455833	9.376500
2040.337967	8.763400
2035.701883	9.038700
2034.467200	9.174500
2037.612567	9.047500
2038.680200	9.019400
2034.597800	9.298700
2034.322233	9.348900
2027.520400	9.775700
2036.100283	9.368100
2039.191517	9.283300
2039.351850	9.292400
2042.954533	9.107100
2041.685967	9.204400
2043.412283	9.112800
2043.027733	9.156000
2053.337433	8.616900
2055.507833	8.510400
2042.707800	9.281600
2036.799833	9.658500
2046.023283	9.272100
2044.801800	9.383300
2043.446800	9.533000
2039.993917	9.783400
2052.874283	9.049800
2048.110783	9.346200
2050.677217	9.257200
2044.198533	9.693000
2038.521633	10.106100
2054.151600	9.164000
2049.500283	9.440700
2053.672667	9.190600
2051.036017	9.386800
2051.392100	9.419000
2051.918900	9.419000
2050.712383	9.553800
2053.737333	9.388800
2056.625050	9.254900
2059.148317	9.107200
2056.972067	9.330400
2056.450833	9.377700
2051.576283	9.683400
2057.916783	9.320100
2067.643183	8.857800
2059.960500	9.386900
2059.345717	9.492400
2058.819700	9.561200
2067.567183	9.056400
2061.042517	9.457300
2071.772483	8.993100
2067.662700	9.249200
2064.332383	9.495900
2063.261333	9.561600
2061.165033	9.822900
2064.144550	9.698300
2068.572433	9.463800
2070.010350	9.420200
2075.148967	9.109600
2076.612817	9.017800
2075.562533	9.090000
2062.408833	9.942300
2069.458567	9.547300
2070.616250	9.525500
2071.162633	9.501600
2071.647017	9.487600
2071.366917	9.559900
2080.682867	9.159100
2076.648733	9.423900
2087.434933	8.856000
2084.263150	9.044600
2081.061283	9.240000
2073.041767	9.736300
2080.964950	9.420800
2088.953817	8.968600
2079.982567	9.521800
2089.086817	8.959900
2083.345000	9.402200
2079.563783	9.693600
2094.894750	8.800100
2092.780950	8.953700
2090.731650	9.093200
2087.184450	9.319700
2082.637267	9.637000
2087.814683	9.451200
2089.993017	9.350800
2079.474117	10.043200
2086.585467	9.643300
2088.209317	9.569800
2090.567400	9.453500
2091.518433	9.553500
2095.278883	9.333300
2091.243300	9.571100
2091.926217	9.536800
2087.474217	9.959200
2087.860667	9.992500
2102.591483	9.176400
2095.200700	9.634100
2095.232650	9.623600
2092.800317	9.785500
2089.988683	10.064100
2101.683367	9.437200
2092.430283	9.985500
2098.381083	9.708600
2101.402767	9.544900
2095.366817	9.902800
2102.769167	9.564400
2101.560867	9.707500
2100.878850	9.782000
2102.619483	9.713400
2103.809283	9.658800
2107.987767	9.425800
2108.875967	9.393700
2116.685300	9.082400
2115.669567	9.149800
2107.100017	9.673600
2107.358433	9.678000
2110.003500	9.669500
2108.450433	9.810900
2117.077083	9.347100
2117.708217	9.307900
2117.995917	9.302500
2112.816150	9.616100
2120.151300	9.328100
2112.882683	9.760200
2111.930250	9.835100
2114.325800	9.697700
2127.339750	9.044900
2123.555767	9.294400
2120.206467	9.565900
2117.741283	9.698400
2126.554483	9.172500
2114.443783	9.908100
2121.617033	9.603000
2129.974350	9.179000
2128.913033	9.256800
2123.492917	9.604300
2120.621233	9.776400
2126.234383	9.451200
2122.719333	9.679500
2122.918817	9.796000
2126.000967	9.644500
2127.940233	9.602100
2128.494650	9.592700
2121.440800	10.006400
2120.171333	10.076100
2123.951033	9.951900
2124.524217	9.911200
2126.755683	9.808500
2126.834450	9.797300
2135.964067	9.396100
2138.639167	9.277000
2131.502167	9.779200
2135.567133	9.552900
2132.721967	9.736300
2137.950550	9.440600
2142.442717	9.263200
2136.745183	9.668100
2136.992850	9.706100
2148.119250	9.074600
2143.150267	9.358000
2137.071700	9.732500
2132.612583	10.044600
2140.872533	9.627000
2134.863000	10.027400
2138.657117	9.822400
2136.249483	9.985500
2142.330617	9.622900
2152.504500	9.019700
2146.705717	9.570100
2150.206933	9.394500
2145.040983	9.720900
2151.201550	9.361700
2144.199683	9.978900
2140.773050	10.219700
2150.991683	9.630600
2150.221517	9.686200
2153.517900	9.634700
2150.108700	9.882500
2147.511117	10.142800
2144.423750	10.296500
2153.104183	9.801900
2146.060650	10.251200
2153.493450	9.860600
2150.808483	10.106400
2157.281783	9.762600
2163.543933	9.470100
2159.857333	9.685800
2157.490000	9.805700
2155.855700	9.941300
2156.946233	9.943500
2159.218383	9.841200
2154.989933	10.168200
2161.444500	9.792200
2161.124033	9.832800
2155.451467	10.223500
2168.733950	9.585800
2166.097417	9.745000
2161.229300	10.048400
2153.563567	10.532200
2171.232633	9.628800
2171.564300	9.644900
2165.205817	10.109800
2170.187450	9.835100
2171.361900	9.765200
2175.197583	9.531300
2165.915683	10.116600
2166.908550	10.108700
2178.710683	9.487200
2174.418333	9.746700
2169.131983	10.058100
2174.382800	9.765800
2176.289683	9.675300
2174.029200	9.868100
2180.301017	9.514900
2174.826867	9.853300
2176.500667	9.802600
2176.032817	9.962200
2171.689300	10.261700
2178.075450	9.930800
2168.729583	10.521300
2174.277983	10.215300
2171.648983	10.400700
2178.891567	10.119400
2174.060367	10.428700
2179.897917	10.135300
2177.102883	10.336500
2184.217033	9.903300
2182.440167	10.005700
2180.792667	10.266100
2188.329467	9.841900
2196.823500	9.349100
2190.677850	9.725000
2180.402750	10.472000
2183.217433	10.374300
2182.826567	10.510000
2184.508217	10.379500
2184.311033	10.431300
2191.394250	9.980900
2196.410617	9.696400
2190.837683	10.084500
2194.219950	9.915500
2196.772750	9.819200
2191.646917	10.156300
2199.277683	9.719700
2198.783183	9.758700
2195.052567	10.124500
2197.005067	10.038700
2202.620950	9.763100
2205.423167	9.591700
2200.282050	9.940400
2197.575350	10.090400
2193.326233	10.536900
2194.850667	10.457500
2197.610133	10.308000
2200.862883	10.124100
2205.874817	9.982000
2207.424683	9.890400
2211.642117	9.667300
2209.161067	9.809200
2201.083350	10.351100
2215.185267	9.525400
2203.829333	10.222500
2214.020517	9.634300
2211.220483	9.801900
2206.837883	10.085400
2201.523733	10.450800
2204.285283	10.399500
2196.185417	10.912600
2207.181233	10.380300
2214.126867	9.990700
2221.824500	9.533600
2206.468683	10.458300
2206.424000	10.613000
2201.431450	10.965200
2215.224400	10.208600
2216.347100	10.158200
2208.453917	10.628200
2211.446167	10.493800
2206.838533	10.908600
2205.707850	11.017700
2219.193250	10.256900
2222.263883	10.084800
2223.866217	10.001200
2222.016567	10.097800
2225.847833	10.025700
2218.438717	10.489600
2221.716367	10.296700
2216.972317	10.601800
2228.447050	10.004300
2227.074733	10.198500
2220.541517	10.631500
2235.264583	9.791400
2225.784450	10.356800
2230.418517	10.104400
2217.635200	10.996700
2233.376167	10.104100
2227.878800	10.451900
2229.044800	10.439600
2231.729750	10.275200
2234.395800	10.112600
2227.754500	10.534400
2237.195150	10.027400
2232.020733	10.356600
2235.247117	10.174300
2241.121717	9.828100
2225.719317	10.844800
2230.834267	10.600900
2232.540533	10.544100
2237.873050	10.225100
2236.468267	10.365700
2234.712333	10.460100
2231.575950	10.758200
2238.294117	10.476700
2233.231917	10.825600
2236.991800	10.650200
2240.717833	10.447800
2238.980767	10.577500
2237.466517	10.693900
2238.614900	10.640000
2243.056467	10.387300
2241.279333	10.516800
2239.888333	10.613400
2235.539000	10.870100
2235.503400	10.880600
2239.817267	10.629700
2242.016950	10.526600
2242.265350	10.534100
2247.391317	10.218700
2245.273817	10.320100
2238.013383	10.775700
2248.711450	10.747700
2252.372083	10.533900
2253.142733	10.535100
2254.360000	10.498700
2250.920717	10.765900
2251.546033	10.763700
2250.361517	10.863700
2256.093450	10.546400
2263.025233	10.297500
2265.394883	10.155300
2262.483017	10.319500
2258.780183	10.561800
2260.496550	10.511000
2259.532100	10.689500
2253.287917	11.093500
2255.100017	11.014900
2254.498883	11.072100
2253.962333	11.125200
2257.806900	10.925000
2260.589250	10.852400
2262.480117	10.796500
2262.268417	10.814200
2264.682517	10.678600
2254.567017	11.311900
2256.356100	11.205800
2260.072150	11.015600
2267.778783	10.574700
2277.719483	10.277100
2268.154117	10.868200
2260.403417	11.325100
2268.428533	10.868100
2265.324450	11.196200
2275.924417	10.591000
2272.186833	10.853100
2273.209367	10.781500
2274.844650	10.698800
2274.938717	10.705600
2285.577500	10.069400
2283.002300	10.232600
2272.229850	11.013500
2281.427000	10.497500
2280.366683	10.562400
2272.088000	11.123900
2282.353500	10.565900
2277.636917	10.896400
2283.023183	10.605900
2280.337750	10.775300
2284.462867	10.567300
2285.173717	10.551100
2283.706633	10.644900
2286.810933	10.451700
2278.407117	10.974700
2290.631633	10.548000
2294.320367	10.347400
2286.220133	10.843200
2297.556900	10.212800
2291.364183	10.595100
2281.884200	11.171600
2289.462233	10.737000
2283.591817	11.118400
2293.133617	10.752700
2293.286833	10.815300
2295.128200	10.715600
2298.900217	10.479100
2294.261617	10.752100
2305.618117	10.074100
2296.195283	10.820700
2298.613967	10.772200
2301.906567	10.621900
2298.083567	10.826800
2304.188317	10.489900
2301.501817	10.653700
2305.553650	10.534400
2305.552067	10.645000
2299.255300	11.046500
2301.932017	10.909900
2299.222583	11.124000
2301.383250	11.113100
2310.806867	10.599100
2310.312767	10.634800
2313.903567	10.408600
2312.283350	10.508900
2314.402717	10.410700
2314.670867	10.585000
2312.403883	10.743600
2311.401300	10.819400
2313.218583	10.736400
2316.726817	10.543900
2312.744533	10.791000
2317.068233	10.512600
2311.749483	10.827000
2302.608267	11.411500
2308.476617	11.090200
2311.584200	11.038700
2314.740567	10.871200
2308.590733	11.279700
2314.846383	10.909200
2310.921250	11.221400
2314.833800	11.030600
2317.178100	10.925600
2319.852867	10.798900
2315.570233	11.067000
2317.543183	10.947600
2311.109883	11.366400
2311.940483	11.334000
2317.000167	11.125600
2321.647033	11.069400
2313.042800	11.627600
2314.138183	11.609700
2322.832417	11.128900
2322.603850	11.171900
2328.560317	10.837300
2328.547567	10.846300
2333.861767	10.518700
2333.094900	10.721600
2318.119783	11.646000
2320.472950	11.552000
2320.631367	11.564200
2334.568533	10.783500
2324.006567	11.471200
2330.913633	11.202300
2332.703800	11.113100
2334.453483	11.057400
2331.991183	11.244900
2332.514133	11.352000
2343.158200	10.791500
2340.208050	11.007500
2342.980933	10.867200
2337.959100	11.182100
2344.094250	10.826900
2352.718617	10.419100
2346.756767	10.888300
2345.052667	10.993300
2345.362517	10.980100
2348.014850	10.829900
2340.217833	11.324100
2345.478550	11.030300
2343.377100	11.187800
2341.130400	11.343500
2345.305950	11.114600
2353.440817	10.687600
2348.813800	11.268500
2350.751667	11.190400
2353.905933	11.039400
2357.285067	10.857400
2356.220250	10.930700
2350.023067	11.291800
2358.305583	10.838400
2358.731133	10.820700
2361.828733	10.815600
2362.271050	10.837100
2350.416900	11.543600
2359.027583	11.061000
2353.229467	11.393800
2357.846250	11.123000
2365.578500	10.667300
2363.189917	10.817500
2357.591250	11.337800
2355.398400	11.647100
2363.180033	11.214300
2364.792250	11.123300
2368.409350	10.892900
2363.325633	11.229300
2365.217967	11.128900
2361.978433	11.340900
2371.200600	10.804400
2367.736833	11.134500
2366.186150	11.248100
2364.362700	11.367200
2368.878950	11.107100
2360.990700	11.694200
2371.513783	11.089500
2371.518567	11.119000
2374.875650	10.956500
2377.432850	10.994600
2373.542617	11.239600
2365.696983	11.743200
2367.857500	11.651300
2377.283317	11.262100
2385.562117	10.841200
2389.158483	10.593900
2386.525083	10.767000
2386.487717	10.793200
2385.660717	10.846300
2386.580867	10.844800
2382.344250	11.246000
2380.252650	11.388500
2389.536483	10.837800
2383.051333	11.254800
2380.129367	11.451700
2388.106767	10.994500
2388.736333	11.067900
2389.385033	11.050200
2396.808417	10.620400
2390.125667	11.027500
2392.455550	10.912400
2387.521317	11.222500
2397.060717	10.680100
2392.706333	10.940100
2392.854183	11.067300
2394.389000	10.999700
2396.167350	10.893500
2388.124667	11.391100
2387.023317	11.510500
2393.485583	11.150700
2394.174000	11.115200
2384.267983	11.731800
2395.048967	11.439400
2397.712983	11.326200
2396.550317	11.427100
2397.651633	11.382000
2412.821150	10.656800
2406.552833	11.050800
2407.700883	10.991100
2401.941833	11.354100
2401.757100	11.426300
2398.835733	11.650800
2405.972583	11.251800
2402.436517	11.493700
2397.172500	11.856500
2410.617650	11.091200
2406.373150	11.361800
2414.103267	10.899700
2403.294467	11.572600
2399.528650	11.814800
2402.731150	11.651900
2412.787667	11.423200
2418.069733	11.158200
2411.960367	11.564500
2417.298800	11.262800
2420.302683	11.110500
2418.789933	11.214300
2418.871117	11.209900
2402.641867	12.192100
2415.243983	11.714700
2419.479367	11.564500
2417.579217	11.705800
2420.832400	11.510000
2425.252133	11.248500
2424.576233	11.289900
2425.423200	11.227700
2423.556583	11.334600
2421.808500	11.598500
2429.822750	11.238500
2432.512767	11.095300
2423.439017	11.627200
2422.296233	11.710200
2433.221350	11.054300
2438.538050	10.823900
2434.797883	11.254800
2432.502117	11.424100
2428.460583	11.683500
2426.907700	11.810000
2426.237367	12.021100
2433.253550	11.631500
2429.080683	11.902800
2433.109733	11.688600
2436.837417	11.491600
2424.590717	12.242200
2433.563917	11.911000
2440.117217	11.561200
2442.307817	11.466100
2444.804300	11.331500
2440.657100	11.590400
2434.761683	11.956200
2452.443333	11.018700
2445.445483	11.430000
2446.368000	11.368100
2445.121367	11.464600
2439.006750	11.903000
2446.875900	11.535500
2446.404250	11.559800
2442.412200	11.816600
2449.237417	11.413900
2443.252567	11.773000
2449.264217	11.421700
2447.809250	11.528900
2448.250600	11.499500
2443.237933	11.786100
2449.634933	11.519100
2448.483867	11.896300
2456.272900	11.471600
2460.489733	11.250900
2450.260267	11.905900
2460.389767	11.458000
2458.552650	11.576000
2454.429317	11.866300
2454.222000	11.906900
2467.299817	11.151400
2469.355083	11.014200
2457.676417	11.787400
2465.386267	11.370100
2470.258583	11.142900
2463.358433	11.569500
2454.455583	12.116700
2465.147450	11.501900
2463.853883	11.637600
2464.477517	11.708200
2459.918417	12.052000
2459.933417	12.062500
2465.478000	11.745800
2472.085683	11.379900
2467.980200	11.673500
2465.579833	11.937900
2461.356183	12.206700
2467.684983	11.860200
2466.896667	11.941000
2472.080700	11.783600
2470.536633	11.891700
2475.847683	11.656200
2480.931017	11.338000
2480.586150	11.377100
2477.403517	11.581900
2481.523317	11.468500
2480.223433	11.536800
2480.904867	11.532700
2473.374333	11.992800
2475.932567	11.899900
2483.717383	11.476200
2472.372383	12.198900
2477.916733	11.881800
2477.691850	11.911400
2482.650633	11.636100
2477.721933	12.017400
2482.591883	11.832300
2482.276850	11.898500
2483.571933	11.883600
2482.834300	11.989100
2483.773483	11.916900
2484.423950	11.977100
2490.400750	11.743700
2491.022667	11.752300
2487.532067	11.994700
2485.306700	12.148700
2491.844600	11.781200
2490.778683	11.869500
2494.581400	11.707400
2486.674017	12.190000
2499.576067	11.432200
2496.016383	11.661000
2494.190067	11.868100
2498.129500	11.669900
2497.477533	11.764800
2505.097650	11.338700
2507.938850	11.186000
2498.520800	11.769500
2497.495250	11.970200
2500.083350	11.877200
2503.973883	11.704500
2497.868167	12.101500
2500.935783	11.930700
2494.484500	12.344600
2504.600650	11.894600
2511.700850	11.497100
2511.989183	11.517000
2506.924933	11.831700
2507.745900	11.894600
2512.786267	11.683300
2498.535067	12.628900
2506.409667	12.168700
2515.842000	11.621900
2513.589383	11.763900
2516.145883	11.635500
2519.313767	11.585200
2514.114050	11.944700
2525.381717	11.332600
2521.998217	11.534500
2510.315950	12.229100
2521.648950	11.564600
2512.078200	12.272300
2516.242383	12.043800
2517.105667	11.999500
2513.865450	12.261800
2518.202233	12.137700
2524.615550	11.793800
2517.411050	12.284600
2514.656617	12.487300
2517.680267	12.307300
2512.449267	12.632200
2519.472800	12.235100
2522.015050	12.086600
2533.535283	11.538000
2525.221667	12.100300
2527.991017	11.961100
2525.815750	12.078500
2522.428050	12.351800
2523.971350	12.362000
2531.295183	11.944500
2525.913617	12.281500
2526.545450	12.287300
2529.836967	12.224500
2528.960617	12.319900
2528.876067	12.381700
2533.302167	12.143200
2534.236933	12.103800
2529.734033	12.393300
2539.206617	11.981200
2538.136317	12.061600
2527.925717	12.711700
2531.032850	12.552500
2535.858583	12.364800
2535.861183	12.433800
2547.651900	11.824700
2540.357683	12.258900
2532.045450	12.758300
2535.678767	12.557800
2541.801733	12.328800
2542.209350	12.374600
2544.217633	12.289800
2540.213183	12.546300
2546.009083	12.233100
2546.036800	12.233600
2546.108583	12.273900
2544.555417	12.476800
2551.712900	12.084200
2549.763317	12.254500
2556.531483	11.861700
2552.091933	12.117600
2553.544650	12.054800
2550.197950	12.393200
2545.606867	12.706900
2549.281283	12.563100
2550.200950	12.527300
2558.259150	12.076100
2557.368317	12.136600
2564.273317	11.898100
2565.494833	11.835600
2552.264467	12.651700
2555.564733	12.457800
2552.856567	12.704800
2563.310717	12.140500
2551.728583	12.888600
2545.036883	13.296600
2554.617633	12.765300
2555.674750	12.729500
2567.123417	12.165100
2566.522117	12.274900
2564.823783	12.387000
2567.860383	12.252000
2567.362217	12.292600
2568.757317	12.239200
2574.522333	11.928000
2575.583833	12.013800
2566.768800	12.558500
2571.946717	12.249700
2572.608600	12.225800
2572.961317	12.355000
2572.524983	12.397200
2569.001517	12.678400
2572.055500	12.500000
2580.180933	12.037200
2581.762883	11.949900
2573.058017	12.641200
2574.275967	12.559000
2571.815583	12.746100
2574.807333	12.580200
2583.782983	12.186300
2586.206950	12.046400
2580.077733	12.482100
2580.161417	12.487300
2571.690867	13.017100
2578.107783	12.623400
2573.493183	12.972900
2584.360517	12.421000
2576.034933	12.957900
2586.814417	12.350200
2583.941600	12.546500
2587.932883	12.321900
2589.036733	12.268500
2591.833383	12.231600
2591.764783	12.268800
2596.975583	11.985900
2599.499033	11.844600
2590.868567	12.376000
2585.506517	12.715300
2583.500400	12.997400
2588.899517	12.703900
2588.914967	12.724900
2597.461233	12.234300
2594.392917	12.538000
2603.807350	12.021800
2597.874500	12.455900
2593.448633	12.711000
2605.656433	11.994300
2604.624867	12.062500
2606.870517	11.982100
2599.406400	12.566000
2601.128050	12.484700
2599.144517	12.681400
2601.155133	12.563400
2602.851767	12.495400
2604.759317	12.398200
2607.981683	12.258300
2603.525767	12.553300
2606.092517	12.475600
2608.047883	12.348900
2606.139533	12.465000
2599.193067	12.881500
2606.001317	12.670900
2599.706833	13.056600
2607.443150	12.605600
2614.595417	12.207100
2610.241650	12.589400
2615.126200	12.342800
2603.354933	13.143000
2609.062317	12.813100
2618.092117	12.313000
2617.139717	12.373300
2621.524217	12.255700
2613.421133	12.786300
2607.412300	13.177100
2617.157233	12.609300
2621.671350	12.430400
2621.077983	12.503100
2611.984900	13.070900
2614.418900	12.967700
2624.330750	12.385400
2625.854150	12.286700
2617.092900	12.837200
2624.418617	12.475300
2627.064850	12.334400
2631.303600	12.111200
2626.099083	12.435900
2630.197750	12.202400
2628.276600	12.272300
2629.060317	12.343600
2627.156433	12.496500
2624.562700	12.686600
2623.188367	12.785500
2631.202917	12.403000
2633.392700	12.316700
2631.957433	12.485100
2631.917150	12.480500
2627.788283	12.753600
2634.499217	12.388300
2630.718083	12.811500
2631.947117	12.769300
2632.480200	12.770600
2633.502033	12.729300
2643.475183	12.317700
2640.624167	12.493900
2642.484900	12.418400
2637.171950	12.763400
2640.400500	12.590000
2636.880317	12.801700
2639.323667	12.677200
2646.924033	12.248400
2640.931100	12.599900
2649.572233	12.133500
2641.465000	12.632900
2639.108100	12.810800
2639.917833	12.750000
2651.817917	12.203800
2648.770583	12.400800
2645.951550	12.658700
2647.586967	12.583000
2649.798717	12.470500
2650.327600	12.449000
2649.304983	12.655200
2645.144417	12.965200
2647.597983	12.845700
2644.729950	13.028300
2642.622250	13.264100
2652.729267	12.726100
2656.114150	12.555500
2656.340800	12.567200
2654.790433	12.676200
2659.892217	12.391600
2648.921383	13.092000
2655.002400	12.764000
2652.477867	12.964600
2656.625733	12.743700
2656.877217	12.719200
2654.268117	12.865000
2663.033650	12.407900
2660.377000	12.724100
2656.392750	12.971900
2658.141750	12.880700
2662.362333	12.674100
2665.046783	12.666000
2667.938567	12.502300
2673.250267	12.237700
2673.431783	12.252000
2672.125317	12.327100
2672.545267	12.321700
2673.617067	12.391900
2675.395267	12.338500
2680.508183	12.104400
2680.500467	12.116800
2670.219267	12.734500
2664.084050	13.138400
2677.044850	12.463400
2673.291150	12.688400
2675.584500	12.614300
2682.848800	12.168800
2678.951150	12.421100
2668.626183	13.056900
2675.588050	12.775100
2682.929500	12.433100
2679.921983	12.627600
2681.979000	12.498200
2685.353850	12.373400
2682.900183	12.653400
2684.965900	12.538700
2684.606817	12.575200
2688.913300	12.404900
2688.234333	12.566700
2689.950317	12.485800
2686.457917	12.703300
2680.946600	13.049900
2679.160400	13.185500
2677.785900	13.315700
2688.622817	12.886000
2687.320883	12.999300
2693.216867	12.677500
2694.287100	12.611000
2692.165650	12.732500
2692.529600	12.741500
2697.059850	12.661100
2702.241683	12.399900
2689.320633	13.179000
2688.515567	13.264300
2694.724033	12.929700
2699.073350	12.684200
2694.364950	12.979100
2703.036183	12.483900
2693.932200	13.328300
2701.109767	12.954100
2702.445300	12.882800
2707.135050	12.588200
2707.626017	12.649900
2711.773950	12.494000
2707.411333	12.763800
2705.040567	12.925900
2709.355933	12.665700
2713.465583	12.423600
2708.876317	12.727600
2712.486967	12.702400
2710.881233	12.808800
2709.436217	12.931300
2712.877150	12.740300
2716.597633	12.658500
2711.635500	12.988400
2714.420150	12.845300
2711.165683	13.050000
2704.664067	13.469800
2706.312800	13.385000
2712.812717	13.186300
2709.700450	13.443500
2718.302833	12.942900
2719.629133	12.897000
2722.183100	12.753800
2710.740400	13.414100
2713.965067	13.230400
2715.217350	13.195400
2719.820250	12.913100
2716.549017	13.125100
2718.313800	13.141100
2722.068217	13.222600
2723.529617	13.162000
2729.411733	12.807900
2723.111917	13.209700
2737.198467	12.354700
2722.778300	13.241900
2723.833000	13.201700
2718.035617	13.594000
2727.314683	13.140300
2725.628433	13.253100
2724.567383	13.343100
2734.572100	12.749600
2721.221067	13.573600
2716.315967	13.898200
2728.106217	13.432000
2735.846583	13.015500
2737.348333	12.936900
2729.928350	13.377500
2735.058667	13.219600
2728.820717	13.646500
2735.494967	13.279900
2731.554317	13.533100
2736.199567	13.281100
2733.008867	13.483900
2728.589350	13.814300
2738.131817	13.219000
2737.003367	13.258300
2741.745567	13.019800
2747.617550	12.841100
2745.874217	13.190500
2743.065267	13.381600
2745.101933	13.308900
2744.957983	13.360500
2746.560300	13.313600
2739.200183	13.777200
2739.881117	13.750000
2744.707383	13.556400
2754.720783	13.068900
2754.106883	13.132500
2751.319217	13.351900
2751.473350	13.368500
2751.500450	13.361600
2749.991183	13.457700
2752.719267	13.471600
2755.127133	13.345500
2755.356567	13.341100
2757.415917	13.202200
2757.163333	13.373700
2762.841283	13.081800
2753.532583	13.721400
2757.619983	13.459200
2769.664017	12.737800
2761.671833	13.254900
2767.644117	13.006600
2761.739783	13.432500
2768.272033	13.096800
2761.270083	13.536300
2764.971350	13.328300
2765.874350	13.269500
2763.564933	13.457700
2771.662067	13.040500
2776.910833	12.744300
2769.924150	13.214600
2768.815600	13.269500
2770.185383	13.196700
2769.188217	13.319800
2770.254083	13.370700
2771.328183	13.339500
2771.417667	13.348300
2774.287250	13.194500
2776.181167	13.239100
2779.002400	13.100000
2780.815167	13.056700
2775.194783	13.398900
2778.360000	13.243700
2776.708733	13.343100
2783.122250	13.101800
2788.344283	12.821700
2791.375117	12.710800
2785.820133	13.025700
2784.230500	13.140500
2784.911917	13.126900
2792.759667	12.662500
2778.943467	13.522600
2789.702800	12.933200
2783.119583	13.327200
2784.864667	13.277800
2780.122483	13.599900
2785.240600	13.361300
2780.852950	13.665200
2789.636317	13.137700
2780.609217	13.708000
2789.819133	13.259100
2789.415633	13.394100
2786.691333	13.599300
2801.866083	12.747600
2796.058467	13.113100
2795.092017	13.192300
2793.360883	13.305600
2796.626050	13.270700
2792.796467	13.545100
2789.855833	13.749600
2794.383400	13.483400
2793.742800	13.671200
2790.431817	13.919200
2795.456933	13.700700
2803.958517	13.202800
2796.089600	13.672700
2795.907450	13.705700
2798.287967	13.737100
2797.070333	13.869900
2805.493083	13.445400
2807.187350	13.368500
2811.748633	13.105200
2806.932383	13.382400
2798.192033	13.992600
2803.886550	13.661300
2808.123833	13.415700
2806.329050	13.572500
2805.671917	13.666300
2806.251350	13.793300
2819.262433	13.090500
2812.286500	13.526900
2814.880900	13.407500
2811.097033	13.670100
2812.405617	13.638400
2811.987617	13.756600
2816.964117	13.472200
2817.364167	13.534900
2813.918950	13.749800
2816.773283	13.600800
2816.389483	13.626300
2815.945450	13.723400
2818.818033	13.581900
2815.212083	13.815600
2817.521550	13.704200
2818.987267	13.707700
2820.464700	13.652600
2822.760017	13.586200
2829.194283	13.215300
2818.629883	13.882500
2816.490600	14.011700
2821.994950	13.811900
2828.849467	13.471900
2827.143117	13.615000
2827.509417	13.647100
2831.192150	13.439300
2828.561600	13.619600
2836.176783	13.211100
2827.854683	13.789800
2832.696283	13.511400
2823.458017	14.080600
2834.465167	13.466200
2828.062800	13.991900
2837.215400	13.495400
2833.425350	13.791800
2823.695800	14.399000
2833.805650	13.835300
2827.371950	14.237900
2832.167317	14.113000
2839.340367	13.741600
2850.665900	13.115000
2840.549200	13.702400
2838.225583	13.914000
2842.715783	13.638000
2845.980450	13.606100
2842.975533	13.836000
2843.238017	13.867600
2846.253033	13.706100
2846.472200	13.687700
2848.484533	13.561200
2850.744733	13.511700
2848.877217	13.720600
2851.753517	13.577500
2847.054917	13.895200
2844.635900	14.059100
2856.697167	13.410100
2847.270167	13.982200
2849.854083	13.863300
2849.421717	13.898200
2853.933917	13.675600
2846.599967	14.146000
2859.137350	13.520600
2860.596750	13.473800
2857.990650	13.718600
2854.826717	13.924900
2855.574733	13.896900
2858.932850	13.703000
2859.841733	13.842300
2864.407933	13.596000
2861.395283	13.772400
2868.370750	13.358000
2861.281050	13.896800
2870.289750	13.418600
2873.899833	13.228500
2868.403600	13.584200
2869.331650	13.556000
2870.401350	13.520600
2875.838217	13.245400
2867.946100	13.866200
2863.269167	14.197600
2868.410350	13.967300
2872.245300	13.771700
2867.953867	14.053000
2872.249367	13.831600
2884.985533	13.240200
2873.601150	13.928000
2875.511017	13.825900
2873.210567	14.002300
2876.264533	13.972800
2881.878917	13.644700
2875.305367	14.094100
2885.050717	13.515400
2875.007850	14.141000
2879.240600	13.881500
2877.549683	14.117100
2878.269667	14.136400
2886.731117	13.671700
2883.956750	13.854200
2884.731483	13.821300
2883.510150	13.921100
2887.189450	13.756100
2886.141267	13.951300
2895.325183	13.421700
2894.157667	13.482100
2886.680167	13.967500
2886.632167	14.079700
2896.228933	13.538400
2898.122900	13.491200
2893.321867	13.782100
2895.440817	13.646500
2894.418350	13.710200
2887.135067	14.325100
2895.930567	13.816900
2895.918083	13.891200
2893.209633	14.066100
2905.048833	13.382400
2894.263367	14.025400
2886.268533	14.653500
2901.140150	13.790900
2890.220600	14.489900
2898.469183	14.003100
2900.054133	14.005800
2897.540650	14.224700
2906.031150	13.814300
2899.432767	14.223400
2893.038733	14.653500
2903.009200	14.031800
2905.773767	13.942600
2902.169117	14.286400
2907.557650	14.012900
2902.100050	14.388800
2898.588133	14.628000
2908.736817	14.052400
2909.998400	13.984400
2909.726583	14.126400
2909.181533	14.190300
2910.891750	14.162000
2910.653400	14.180000
2903.697150	14.614400
2906.614700	14.485100
2911.337917	14.266000
2912.161600	14.252900
2917.107933	13.984800
2911.889183	14.294400
2908.241717	14.530600
2912.567483	14.282700
2911.001950	14.485700
2910.287617	14.539900
2932.492417	13.268800
2915.328300	14.279000
2920.575183	14.052600
2919.081150	14.274500
2913.525533	14.664000
2911.453133	14.871600
2912.424867	14.839300
2929.519717	13.841200
2923.964617	14.202400
2934.964850	13.689500
2932.545833	13.865400
2927.086033	14.205600
2926.104850	14.281100
2924.429083	14.451600
2929.639483	14.168400
2936.420600	13.824800
2935.615600	13.895600
2929.350417	14.275900
2934.224800	13.982900
2926.374917	14.594800
2928.713950	14.509100
2923.872600	14.891300
2938.261083	14.022300
2940.260783	13.921200
2938.329417	14.042500
2942.547417	13.844800
2940.965233	14.052300
2939.927850	14.139500
2938.034967	14.275900
2935.100700	14.476700
2933.980067	14.693500
2933.413867	14.777200
2942.967917	14.263000
2944.397133	14.157000
2939.180000	14.474600
2933.709283	14.826600
2928.384050	15.237800
2939.604767	14.564800
2937.184717	14.757400
2940.336767	14.618800
2945.901017	14.451400
2949.664733	14.260800
2953.545033	14.087100
2944.169917	14.697700
2945.432483	14.666100
2957.302567	13.971100
2947.503917	14.696200
2956.202467	14.209900
2959.588000	14.047700
2961.282617	13.954000
2951.739667	14.559100
2960.632917	14.032600
2961.738467	14.008900
2953.348517	14.642500
2956.796367	14.466100
2955.294200	14.601800
2963.070200	14.157500
2962.544150	14.188700
2960.711667	14.320300
2956.731083	14.632500
2960.055200	14.451200
2963.364500	14.282600
2959.584683	14.546400
2962.478767	14.445700
2955.666283	14.885100
2962.974283	14.509500
2968.982333	14.165700
2971.291417	14.046100
2967.992533	14.268000
2968.289133	14.402400
2972.856917	14.169700
2960.825917	14.985700
2961.729250	14.952200
2962.466000	14.943500
2967.419150	14.688500
2971.530833	14.622000
2976.855983	14.315400
2976.694850	14.354600
2981.515833	14.070000
2979.813867	14.212900
2980.367800	14.224100
2972.571883	14.715600
2979.288883	14.412900
2972.968583	14.820000
2972.440800	14.870300
2970.020800	15.089300
2978.517200	14.723000
2981.408600	14.589800
2977.400050	14.900900
2981.809767	14.637400
2982.028217	14.647600
2987.276817	14.367700
2991.346300	14.309300
2989.053617	14.450200
2984.698400	14.726900
2980.917950	14.982200
2985.093317	14.875600
2982.571100	15.090200
2997.598267	14.281900
2992.951067	14.574400
2981.811467	15.279400
2980.533167	15.386500
2998.485700	14.427500
3000.454050	14.379200
2995.100400	14.747900
3000.880167	14.415400
2997.329533	14.628600
2999.142100	14.542100
2998.954600	14.591300
3004.662517	14.297500
3004.987383	14.278500
2997.764800	14.736800
2999.940583	14.669700
2995.932383	15.041100
2997.595633	14.986800
2998.040467	15.018400
3007.829900	14.443700
3008.951567	14.374000
2997.075983	15.119100
3008.757367	14.569600
3005.115683	14.812500
3012.450983	14.397600
3017.030800	14.109800
3007.364200	14.843000
3011.592333	14.629500
3012.629233	14.628300
3017.106367	14.386000
3014.176217	14.578000
3010.927117	14.785000
3009.356067	14.953900
3012.218600	14.834600
3016.111933	14.659800
3014.037833	14.788500
3018.481783	14.553900
3016.009800	14.713700
3018.433433	14.680800
3016.754617	14.874400
3017.453433	14.883600
3016.369233	14.999100
3020.528600	14.759900
3019.307833	14.860500
3020.668317	14.842300
3020.151633	14.996700
3034.077683	14.197200
3019.613233	15.069900
3038.470433	13.997100
3035.717583	14.249700
3031.367283	14.541900
3023.492883	15.091500
3028.375067	14.814400
3033.906183	14.514000
3025.370000	15.053600
3031.422950	14.828600
3032.364950	14.804900
3024.796783	15.345900
3028.163400	15.140000
3034.165050	14.802200
3033.922400	14.810900
3033.199017	14.944600
3034.660283	14.871300
3037.482917	14.692000
3031.264867	15.106900
3030.827133	15.191700
3033.998567	15.057400
3041.325433	14.653500
3036.322250	14.975000
3041.996550	14.669300
3040.940650	14.756300
3039.258500	14.940500
3048.854633	14.484300
3047.113633	14.606700
3042.886200	14.922500
3036.687800	15.311600
3042.061583	15.024600
3037.094433	15.357300
3054.206200	14.496200
3043.318050	15.157700
3053.240417	14.558200
3060.380483	14.136900
3056.339683	14.525700
3049.004650	14.987600
3054.701533	14.685000
3048.091283	15.099000
3053.204100	14.806700
3055.488567	14.678500
3057.259000	14.733200
3057.435300	14.780600
3052.736567	15.186400
3058.985600	14.823200
3060.493050	14.740100
3060.288967	14.768200
3057.441517	15.056200
3067.643900	14.525000
3060.182800	15.008300
3061.622333	14.978100
3056.535967	15.319600
3059.509667	15.155800
3059.117317	15.237100
3067.413867	14.893000
3064.853383	15.070500
3071.665300	14.672900
3068.305183	14.893800
3070.069967	14.948500
3070.836950	14.919500
3079.602917	14.457700
3067.455250	15.172100
3061.583400	15.548300
3072.093250	14.925500
3069.582733	15.142200
3076.507100	14.762300
3074.939467	14.888500
3075.491867	14.845000
3070.479133	15.175500
3076.659600	14.811500
3064.856283	15.728700
3076.712017	15.017200
3072.122500	15.307400
3082.383767	14.721700
3079.809017	14.973100
3081.516400	14.991800
3085.737017	14.769700
3079.445233	15.192000
3084.487400	14.930000
3084.058933	14.992200
3085.593683	14.929500
3085.421617	15.023800
3086.203100	15.002900
3082.688683	15.239100
3085.216450	15.112100
3090.652400	14.797100
3081.901950	15.349700
3095.188183	14.745300
3099.596417	14.503900
3091.770700	14.991800
3093.552117	14.900800
3095.063183	14.949000
3100.129533	14.696100
3105.153700	14.450000
3106.317600	14.386700
3095.897367	15.038200
3094.879817	15.100900
3094.547517	15.230500
3095.984017	15.231700
3101.907967	14.922400
3105.823583	14.728200
3102.928650	14.916500
3106.612833	14.728200
3105.442300	14.861600
3111.628583	14.608800
3107.371267	14.873800
3110.332333	14.700300
3110.485817	14.739700
3102.017017	15.385900
3108.472667	15.054400
3112.453133	14.883300
3106.867500	15.232100
3109.849300	15.083600
3102.057100	15.557300
3111.039450	15.140000
3108.044300	15.331400
3107.168750	15.408800
3112.825100	15.091100
3115.966300	15.052100
3120.304133	14.835600
3118.513100	14.994800
3121.304367	14.834800
3114.624217	15.224500
3118.552533	14.982900
3119.544783	14.935800
3120.632183	14.865000
3115.435250	15.450800
3115.482383	15.439200
3112.801500	15.622100
3119.594383	15.233100
3122.083800	15.145700
3120.612733	15.363300
3118.875067	15.517600
3121.483683	15.391500
3134.153633	14.685000
3137.460317	14.489200
3123.230233	15.412800
3129.030683	15.207900
3124.726517	15.502600
3134.414650	14.945900
3130.827300	15.198200
3131.456417	15.340600
3122.556767	15.899200
3129.999150	15.473600
3134.708967	15.230500
3141.875383	14.957700
3138.661800	15.182900
3139.948533	15.138300
3135.055717	15.448300
3150.870917	14.578000
3137.166000	15.407600
3142.544550	15.084200
3134.373850	15.571100
3150.617700	14.779400
3145.871933	15.074400
3137.209283	15.618600
3138.284400	15.549200
3144.018050	15.315200
3145.254233	15.305700
3140.160433	15.663000
3141.668800	15.614900
3141.689733	15.632100
3139.329700	15.798200
3141.632567	15.752500
3150.043100	15.408800
3141.842917	15.913000
3143.516383	15.831600
3144.205933	15.810900
3150.561417	15.580600
3154.588533	15.374700
3157.395650	15.222800
3160.800233	15.018000
3147.148583	15.885300
3145.318400	16.009400
3147.870350	16.045700
3151.725017	15.873400
3151.472233	15.927000
3155.682467	15.698200
3155.235283	15.739200
3151.516800	15.962900
3156.015317	15.832300
3156.485133	15.879600
3153.109633	16.108800
3162.457917	15.589900
3162.972800	15.582500
3159.102083	15.826500
3166.813083	15.410700
3169.181850	15.425600
3175.612067	15.051400
3176.446117	15.003400
3167.623550	15.602900
3172.659517	15.408100
3168.266033	15.688800
3168.206817	15.777700
3173.227233	15.494100
3180.138283	15.091500
3177.019333	15.285300
3172.662750	15.728000
3180.649433	15.282300
3172.335917	15.775900
3174.119883	15.683400
3167.161100	16.138700
3180.560083	15.384000
3174.938567	15.817900
3176.505367	15.737500
3173.645267	15.950800
3178.036867	15.706600
3182.998467	15.540400
3176.703933	15.997800
3179.253067	15.938500
3182.249733	15.753000
3174.154233	16.261500
3184.039283	15.671100
3183.962333	15.746700
3180.589483	16.068300
3190.967667	15.471700
3187.244150	15.751700
3189.350567	15.628300
3182.490117	16.066600
3182.234233	16.094700
3192.410567	15.543100
3189.658067	15.727000
3185.784200	15.985100
3194.790733	15.456000
3189.150550	15.963500
3190.283367	15.941500
3185.408200	16.291700
3197.952550	15.550700
3196.980717	15.775900
3198.814083	15.695100
3189.167433	16.319700
3195.940617	15.970300
3200.637967	15.775900
3198.913650	15.887600
3198.182683	15.954300
3201.381050	15.787700
3204.030500	15.679400
3201.763933	15.964800
3203.831850	15.857600
3205.446200	15.769700
3198.584083	16.206000
3193.672600	16.568300
3201.875483	16.133400
3202.324183	16.173600
3202.685817	16.174600
3210.252733	15.728700
3206.833983	15.945900
3210.132417	15.905500
3205.326200	16.220600
3219.313717	15.474100
3212.470050	15.914600
3207.441650	16.249700
3214.672800	15.831200
3219.278650	15.712100
3222.789783	15.547500
3215.622033	16.037100
3217.757417	15.955300
3218.337717	15.921400
3220.644167	15.793000
3231.623750	15.206900
3220.177550	15.886400
3225.480700	15.585200
3227.331333	15.478500
3219.704133	15.993600
3219.052733	16.188600
3221.879583	16.053300
3217.290717	16.383700
3230.143283	15.631500
3231.696717	15.524200
3224.326783	15.994500
3226.099050	16.049300
3225.207233	16.110000
3241.009967	15.241000
3233.422000	15.692000
3229.381967	15.949900
3224.213467	16.265500
3229.401917	16.140100
3232.513167	15.973300
3235.596067	15.853600
3233.632117	15.990100
3239.451967	15.779200
3234.250583	16.156200
3235.593067	16.143100
3234.928333	16.197900
3238.510900	16.006700
3235.569367	16.206700
3242.641917	15.834400
3244.793750	15.768500
3243.825267	15.864400
3244.011400	15.886700
3242.016300	16.024700
3244.918883	15.900000
3248.188400	15.767000
3246.993067	15.989800
3248.790100	15.910700
3253.101783	15.656400
3246.484850	16.069700
3250.690517	15.990700
3245.299417	16.334500
3252.088150	15.998600
3250.871717	16.081600
3243.015533	16.585200
3255.146117	15.889900
3254.035633	16.039800
3249.220217	16.370800
3252.868167	16.183000
3257.937967	15.923500
3258.188783	15.943800
3253.065350	16.228400
3250.103267	16.543300
3257.385617	16.182400
3262.281150	15.947300
3257.505650	16.286900
3257.595867	16.315000
3262.854967	16.028200
3263.485950	16.066400
3266.077767	16.024900
3268.605050	15.884000
3269.881133	15.791400
3264.211467	16.148800
3265.037100	16.293500
3262.944917	16.443100
3273.925450	15.833600
3266.812050	16.264100
3266.716367	16.459300
3274.966933	15.973800
3267.660100	16.490000
3279.617533	15.801900
3277.607267	15.929800
3277.839267	15.929800
3269.445867	16.465900
3278.636533	15.924000
3279.876483	16.053900
3279.826667	16.051300
3276.775600	16.259300
3277.500167	16.230700
3275.264400	16.422500
3279.757200	16.253600
3285.524150	15.963200
3281.569083	16.257000
3284.560650	16.078700
3279.617233	16.377900
3287.840033	15.901800
3290.748433	15.883500
3291.379000	15.863900
3299.359200	15.449300
3294.093600	15.788300
3290.455250	16.018400
3290.533483	16.024500
3284.989233	16.432800
3280.499083	16.735800
3278.593433	16.936800
3287.593867	16.415800
3286.090850	16.586900
3293.068883	16.237500
3301.358717	15.786400
3287.947133	16.650900
3287.481600	16.688600
3292.086800	16.448600
3300.709233	16.003500
3294.627900	16.449800
3291.040433	16.707900
3292.292267	16.707700
3293.876717	16.623700
3297.727083	16.393500
3299.810400	16.277000
3298.138117	16.385500
3297.439883	16.417800
3300.702767	16.245100
3297.208917	16.479700
3297.992933	16.437900
3294.284933	16.666800
3292.731317	16.772500
3296.257333	16.580700
3305.325267	16.286500
3310.587200	15.993800
3301.363367	16.578400
3303.534467	16.475800
3307.546833	16.350300
3303.959617	16.575400
3301.957217	16.739200
3306.771550	16.503500
3308.536950	16.615100
3305.117467	16.847200
3303.170833	17.020800
3313.869750	16.367300
3320.203267	16.068700
3312.871300	16.647800
3320.802783	16.203900
3314.618533	16.598400
3326.912000	15.888500
3322.469867	16.174600
3318.421367	16.439200
3318.145133	16.606500
3318.077083	16.655700
3317.462367	16.730500
3322.143200	16.469600
3333.765650	15.801200
3326.634433	16.248000
3325.487617	16.502500
3323.976117	16.647400
3328.343383	16.393500
3330.050183	16.298400
3324.141417	16.683700
3326.039617	16.580800
3325.548217	16.853800
3332.004967	16.489300
3334.179150	16.378100
3329.530817	16.669900
3333.561350	16.568300
3336.203067	16.457200
3328.258767	16.954600
3334.951433	16.553400
3327.004833	17.028300
3330.630200	16.837100
3330.840150	16.849400
3340.580100	16.282700
3331.758267	16.814500
3340.354100	16.310900
3344.033067	16.136800
3354.197450	15.649400
3346.763217	16.131100
3349.561800	15.987500
3342.557917	16.417300
3343.124517	16.417600
3345.007450	16.330400
3341.354133	16.764300
3345.610617	16.553800
3342.809083	16.742100
3341.847100	16.842200
3340.117067	16.978600
3348.916633	16.474500
3349.473450	16.678100
3344.919067	16.980100
3346.610583	16.908900
3352.107817	16.599100
3357.701933	16.386600
3352.212267	16.761400
3347.266583	17.086500
3351.305000	16.854500
3346.953433	17.133900
3352.435533	16.846500
3346.958733	17.181600
3345.752017	17.279500
3346.022483	17.316000
3351.581517	17.013100
3350.816317	17.165500
3351.795483	17.223600
3362.547833	16.617600
3362.146167	16.647400
3365.642350	16.463900
3364.317717	16.549300
3362.737183	16.643100
3366.875600	16.418000
3361.515517	16.745200
3361.990533	16.983300
3370.633200	16.462400
3369.678400	16.544000
3371.775250	16.443500
3370.424550	16.727000
3374.099483	16.544100
3378.077350	16.320800
3376.637417	16.439800
3370.944500	16.943300
3378.940317	16.510900
3371.074383	17.005500
3369.842983	17.106900
3367.621917	17.262700
3366.865433	17.314800
3371.175067	17.066200
3373.990567	16.948600
3374.442283	16.919400
3366.451800	17.417600
3372.976550	17.122400
3373.005567	17.235400
3370.470000	17.431100
3374.817517	17.200600
3383.480350	16.709600
3382.052717	16.825600
3379.326133	17.015400
3380.584817	16.943500
3379.536617	17.033800
3379.277800	17.229200
3386.374500	16.832600
3384.811067	16.958200
3389.687017	16.702300
3388.898367	16.960300
3383.204033	17.313900
3395.741950	16.617500
3386.872150	17.208200
3397.499800	16.734200
3402.167150	16.508600
3397.299017	16.846600
3395.987850	16.978100
3392.290400	17.245400
3398.270333	16.898400
3408.690617	16.337200
3402.057883	16.722300
3397.888183	16.997400
3400.895850	16.838900
3397.675367	17.248900
3402.377683	17.136600
3399.818250	17.321000
3405.525783	17.008500
3405.114217	17.035600
3398.007950	17.492000
3402.310067	17.326600
3411.265683	16.997100
3406.881417	17.293000
3407.274000	17.327000
3409.653433	17.200500
3410.820317	17.154700
3413.757800	16.982300
3413.141250	17.200700
3413.850183	17.199600
3415.682500	17.093000
3418.153400	16.929800
3416.874833	17.157600
3424.566433	16.746600
3412.370450	17.498900
3423.421867	16.836100
3419.594833	17.083500
3415.136867	17.398000
3430.769483	16.571100
3426.153217	16.844500
3426.786500	16.848800
3425.244117	16.975600
3423.322783	17.187300
3427.076417	17.032600
3426.635217	17.079700
3431.313433	16.824300
3426.250000	17.170400
3425.872100	17.222900
3430.322517	16.971100
3429.672750	17.045900
3435.674517	16.683700
3432.224783	16.895100
3426.335933	17.259900
3428.696050	17.133800
3430.095300	17.096900
3438.403983	16.985400
3433.229650	17.335700
3431.165983	17.519100
3436.629283	17.176800
3431.931633	17.481300
3429.851300	17.586500
3434.848683	17.335800
3433.765017	17.407900
3437.917000	17.257100
3434.351633	17.487000
3431.035183	17.743800
3437.735750	17.367200
3441.191667	17.357800
3444.812200	17.168300
3426.881517	18.304000
3442.553317	17.380900
3439.567533	17.612700
3445.728233	17.388900
3445.761133	17.430900
3448.613867	17.306800
3451.367533	17.156400
3453.741567	17.034700
3454.006833	17.049600
3458.055350	16.961300
3450.146700	17.451500
3444.801800	17.794400
3444.958617	17.823400
3447.299467	17.716600
3444.252117	17.916700
3453.649783	17.382000
3452.456783	17.510100
3460.394783	17.344200
3464.771650	17.136200
3464.872467	17.153800
3465.615317	17.161900
3464.205783	17.283000
3466.816983	17.105400
3464.845567	17.243800
3465.898533	17.192100
3466.903350	17.407100
3459.760300	17.916500
3463.214650	17.745800
3458.256700	18.056600
3462.961667	17.759500
3462.821567	17.758000
3465.167650	17.634800
3456.897733	18.144900
3459.885950	18.129200
3478.261817	17.216800
3478.126267	17.248000
3467.442283	17.901000
3475.398450	17.502200
3477.950217	17.437600
3477.136633	17.508300
3472.545767	17.832700
3475.811117	17.659300
3476.175167	17.639500
3475.910983	17.706900
3481.170000	17.481500
3485.023683	17.283000
3482.490317	17.435800
3481.941533	17.487600
3476.082233	17.881800
3486.902500	17.257700
3484.466067	17.391400
3486.590067	17.284900
3488.138033	17.535900
3484.495400	17.775200
3489.741300	17.513600
3488.593283	17.616900
3484.447750	17.935400
3487.836850	17.765600
3494.185900	17.395400
3486.586450	17.877200
3498.282900	17.350400
3502.266950	17.166500
3508.146817	16.814500
3495.754183	17.591400
3492.932333	17.816700
3488.473633	18.129900
3498.469150	17.562200
3495.593883	17.781000
3504.976500	17.247800
3496.366550	17.763800
3492.868883	18.005100
3499.272533	17.776500
3496.722533	17.973600
3507.711583	17.365800
3504.893700	17.541800
3499.303200	17.886500
3496.544067	18.062800
3514.480400	17.155400
3504.012250	17.816300
3509.758717	17.534800
3512.370567	17.401300
3511.152683	17.464800
3510.334433	17.524500
3519.147933	17.171100
3515.406117	17.401300
3513.964933	17.475300
3517.368833	17.287800
3516.782300	17.406500
3516.589867	17.507500
3517.614283	17.466900
3517.156517	17.512000
3520.843250	17.307500
3516.993583	17.564100
3513.657900	17.775500
3518.751400	17.625500
3521.164483	17.529300
3524.154717	17.412400
3519.496433	17.683500
3518.874900	17.732300
3517.469600	17.827400
3518.182700	17.960900
3511.114250	18.404600
3520.712800	17.873900
3517.450483	18.097200
3521.769867	17.998000
3521.765283	18.051000
3517.073167	18.375400
3519.001283	18.280800
3522.858250	18.086000
3530.877133	17.637300
3523.599667	18.136900
3530.471450	17.748800
3531.943833	17.719200
3522.120517	18.327100
3524.856300	18.188600
3531.438483	17.796600
3529.890483	17.984100
3536.170483	17.760000
3539.150867	17.590000
3537.004950	17.732000
3537.609800	17.724200
3533.358400	18.124400
3531.617183	18.250800
3539.641517	17.837200
3532.668833	18.291600
3541.140367	17.804200
3535.911967	18.128500
3532.934950	18.494000
3539.720900	18.135500
3548.255650	17.650700
3543.005200	17.962100
3553.338283	17.435100
3553.656683	17.517300
3542.327100	18.276800
3544.448317	18.178900
3548.486767	17.950000
3543.932483	18.243600
3551.911350	17.841500
3556.486600	17.652500
3552.108467	18.010300
3550.348867	18.133900
3552.132617	18.041800
3554.515083	17.896200
3553.752117	17.987800
3558.381250	17.839700
3557.959867	17.906200
3561.225033	17.762100
3556.789350	18.058700
3557.389700	18.046400
3560.016783	17.923200
3553.711383	18.462300
3561.596567	18.016900
3572.670033	17.373900
3567.206600	17.689700
3561.789383	18.155100
3560.412767	18.273400
3568.927483	17.838300
3570.443117	17.754100
3569.346717	17.839900
3566.385633	18.032700
3566.628633	18.086400
3564.684550	18.244400
3573.307100	17.774300
3568.547067	18.091300
3566.783550	18.232700
3570.008667	18.084400
3566.620450	18.513800
3571.437867	18.197800
3579.611700	17.754500
3575.077700	18.032000
3572.170917	18.244300
3576.190333	18.075900
3576.938583	18.068400
3581.587433	17.851500
3571.290017	18.499300
3577.366367	18.153100
3577.979300	18.147500
3573.162483	18.578700
3577.552050	18.360500
3579.276067	18.329200
3580.877050	18.247700
3581.827383	18.217200
3591.001200	17.671100
3584.616450	18.254600
3583.262617	18.367000
3589.311017	18.013300
3585.219717	18.278500
3587.762800	18.281300
3586.900600	18.414800
3596.663783	17.903700
3599.286917	17.759200
3590.912983	18.259500
3598.722017	17.837200
3589.811583	18.474000
3589.423067	18.615700
3596.323400	18.272600
3597.494050	18.223400
3597.988200	18.205700
3595.888117	18.339400
3588.639967	18.830200
3597.705150	18.433400
3605.458217	17.978800
3595.256083	18.582000
3599.188367	18.358900
3603.130133	18.298200
3606.141933	18.158100
3600.186567	18.575500
3598.834500	18.688700
3599.099883	18.734100
3596.166383	18.955200
3610.784350	18.257900
3614.846433	18.036000
3604.357717	18.687700
3609.165400	18.414200
3604.169117	18.804400
3604.110800	18.893000
3617.235033	18.158100
3616.240967	18.262600
3610.167333	18.634500
3612.794783	18.460800
3602.199200	19.178900
3604.914383	19.128300
3616.268100	18.456500
3618.464483	18.365700
3613.034783	18.719100
3610.547200	18.889400
3607.967117	19.084300
3613.352217	18.898900
3615.011400	18.841700
3607.011367	19.393300
3614.557217	18.978400
3627.158767	18.242800
3625.064950	18.393200
3619.968700	18.866300
3629.819967	18.308200
3627.744083	18.450900
3630.449333	18.318900
3632.090683	18.369600
3625.107317	18.823600
3627.769083	18.750600
3625.448450	18.917000
3628.138767	18.802300
3633.439517	18.476500
3635.163733	18.501000
3632.874383	18.682200
3640.880250	18.243200
3644.646333	18.035700
3636.236350	18.539000
3633.501050	18.716600
3633.243750	18.758900
3627.285233	19.175400
3635.987250	18.661400
3640.458750	18.402200
3643.984400	18.251600
3643.136983	18.463200
3640.963083	18.603900
3628.322800	19.462100
3635.842033	19.016700
3643.361650	18.585200
3635.751600	19.047200
3644.149333	18.701400
3639.772917	18.994900
3641.220483	18.959700
3646.113233	18.656700
3650.333717	18.427900
3653.759533	18.253800
3646.667700	18.840500
3647.740950	18.795800
3650.457150	18.665900
3652.552417	18.554500
3651.771117	18.652600
3655.554150	18.457100
3664.990350	17.924300
3662.690550	18.085700
3658.527617	18.341500
3661.073917	18.194800
3664.308100	18.199100
3667.472033	18.030600
3665.857483	18.125700
3660.637283	18.459300
3658.173517	18.668200
3658.931717	18.757600
3659.862117	18.733300
3656.720017	18.986800
3659.869900	18.831800
3665.107633	18.557700
3669.406000	18.321800
3668.977600	18.513200
3666.471650	18.716900
3667.378083	18.756600
3663.312733	19.025400
3657.405733	19.426500
3669.498433	18.708300
3670.121517	18.800800
3671.585800	18.758900
3666.834750	19.143200
3672.893933	18.772800
3671.008100	18.908300
3668.918117	19.071100
3667.711250	19.286600
3674.485450	18.977900
3667.987700	19.447400
3677.214167	18.908500
3682.700767	18.605800
3683.342467	18.575500
3683.928233	18.591300
3675.355217	19.229800
3674.743383	19.285500
3682.823133	18.812100
3690.819350	18.353900
3681.547383	19.058100
3677.740650	19.337300
3685.837783	18.921000
3683.352517	19.089400
3685.224867	18.994300
3686.815700	18.895400
3686.275100	19.036400
3680.259967	19.437700
3683.424367	19.266100
3685.481967	19.162900
3686.399383	19.111800
3686.236133	19.179600
3692.435900	18.902000
3685.044200	19.379000
3685.839983	19.369800
3693.521600	18.929900
3692.672833	19.104300
3687.116050	19.521500
3689.781917	19.432600
3691.108900	19.399100
3690.133567	19.492600
3694.449000	19.248800
3696.999550	19.218200
3696.570833	19.356000
3703.061850	19.029800
3697.239483	19.443000
3699.987217	19.299100
3698.072150	19.421900
3704.625733	19.048200
3695.297983	19.699200
3703.571817	19.248100
3714.514533	18.636600
3707.298700	19.073300
3710.675067	19.026700
3710.699600	19.079300
3705.930083	19.437000
3712.056467	19.083400
3708.251667	19.332700
3713.068533	19.044000
3710.924767	19.339600
3716.153533	19.027800
3714.248250	19.199900
3713.525317	19.245700
3720.419083	18.949200
3723.155300	18.857900
3725.802800	18.739400
3733.623700	18.291200
3729.541800	18.534800
3721.430967	19.039000
3722.666383	19.027200
3731.950917	18.579400
3730.153167	18.712300
3722.165183	19.257900
3726.481583	19.014900
3724.177433	19.165800
3732.170483	18.735900
3720.685000	19.566500
3725.874333	19.292700
3725.561917	19.361200
3731.200583	19.056000
3727.520517	19.279600
3736.012833	18.797100
3736.797200	18.941300
3726.018217	19.595800
3742.785467	18.615700
3737.966917	18.922900
3742.193033	18.771900
3736.033167	19.248100
3740.004933	19.103400
3740.163350	19.094300
3735.534283	19.396500
3748.542850	18.622700
3745.822450	18.864800
3755.629283	18.412800
3745.079283	19.059300
3744.106850	19.121600
3747.704550	18.921500
3750.632350	18.729800
3745.794300	19.069100
3749.592833	19.038300
3752.250350	18.889100
3740.017867	19.642300
3746.299033	19.282800
3747.293083	19.396200
3753.774950	19.046900
3753.230950	19.153700
3752.130383	19.263900
3749.714867	19.411300
3751.495533	19.316700
3751.874717	19.453000
3751.625633	19.538400
3750.589200	19.666400
3757.023050	19.297100
3760.960117	19.097800
3756.351850	19.379300
3759.716517	19.321600
3761.419950	19.262900
3761.366133	19.342500
3761.176683	19.363500
3758.373333	19.502100
3754.988033	19.699200
3756.398200	19.693100
3757.086350	19.789700
3769.031817	19.073800
3760.980383	19.540500
3760.956417	19.543600
